SpectraSuite Datei
++++++++++++++++++++++++++++++++++++
Datum: Thu Sep 19 16:45:38 CEST 2024
Benutzer: Student
Dark-Spektrum vorhanden: Nein
Referenz-Spektrum vorhanden: Nein
Zahl der probierten Teilspektren: 1
Spektrometer: USB2+H15728
Integrationszeit (usec): 1000000 (USB2+H15728)
Spektren Durchschnitt berechnet: 25 (USB2+H15728)
Boxcar Glättung: 0 (USB2+H15728)
Dunkelstromkorrektur: Nein (USB2+H15728)
Puls/Lampe aktiviert: Nein (USB2+H15728)
Correct for Detector Non-linearity: Nein (USB2+H15728)
Streulichtkorrektur: Nein (USB2+H15728)
Anzahl Pixel in verarbeitetem Spektrum: 2048
>>>>>Begin Processed Spectral Data<<<<<
0,00	938,09
1,00	938,09
2,00	938,09
3,00	913,37
4,00	1032,36
5,00	1024,59
6,00	1001,00
7,00	1031,80
8,00	1116,44
9,00	1069,16
10,00	1077,96
11,00	1164,28
12,00	1079,64
13,00	1358,92
14,00	1105,67
15,00	1173,64
16,00	1159,22
17,00	1281,30
18,00	1198,35
19,00	1351,33
20,00	1218,30
21,00	1226,25
22,00	1280,74
23,00	1351,61
24,00	1278,21
25,00	1326,15
26,00	1363,69
27,00	1439,99
28,00	1348,43
29,00	1352,17
30,00	1404,98
31,00	1385,69
32,00	1558,89
33,00	1373,52
34,00	1423,05
35,00	1442,61
36,00	1417,99
37,00	1354,70
38,00	1412,75
39,00	1573,31
40,00	1376,98
41,00	1505,71
42,00	1414,81
43,00	1463,21
44,00	1374,74
45,00	1382,32
46,00	1350,58
47,00	1455,81
48,00	1394,02
49,00	1532,77
50,00	1382,98
51,00	1431,66
52,00	1376,70
53,00	1543,16
54,00	1403,95
55,00	1365,66
56,00	1506,09
57,00	1411,53
58,00	1398,05
59,00	1403,67
60,00	1315,76
61,00	1394,77
62,00	1356,86
63,00	1322,68
64,00	1348,05
65,00	1321,56
66,00	1347,59
67,00	1343,94
68,00	1356,29
69,00	1341,41
70,00	1895,65
71,00	1419,49
72,00	1356,01
73,00	1332,14
74,00	1341,50
75,00	1338,13
76,00	1315,85
77,00	1389,25
78,00	1352,64
79,00	1350,40
80,00	1357,32
81,00	1299,47
82,00	1392,90
83,00	1309,30
84,00	1551,59
85,00	1414,62
86,00	1611,04
87,00	1557,02
88,00	1318,85
89,00	1294,13
90,00	1356,76
91,00	1500,28
92,00	1376,52
93,00	1425,76
94,00	1336,63
95,00	1322,78
96,00	1337,94
97,00	1817,00
98,00	1358,35
99,00	1341,31
100,00	1390,65
101,00	1443,46
102,00	1349,37
103,00	1349,46
104,00	1361,91
105,00	1456,19
106,00	1401,33
107,00	1420,33
108,00	1421,45
109,00	1368,37
110,00	1559,36
111,00	1446,64
112,00	1348,24
113,00	1427,35
114,00	1356,29
115,00	1346,84
116,00	1358,26
117,00	1344,78
118,00	1360,69
119,00	1574,15
120,00	1368,65
121,00	1333,82
122,00	1397,11
123,00	1329,61
124,00	1348,99
125,00	1338,88
126,00	1377,55
127,00	1412,00
128,00	1373,71
129,00	1417,80
130,00	1385,50
131,00	1438,21
132,00	1353,11
133,00	1461,15
134,00	1391,78
135,00	1353,95
136,00	1326,43
137,00	1439,90
138,00	1555,33
139,00	1430,82
140,00	1400,48
141,00	1486,05
142,00	1382,32
143,00	1337,10
144,00	1383,91
145,00	1355,73
146,00	1371,37
147,00	1502,44
148,00	1850,15
149,00	1480,44
150,00	1330,83
151,00	1432,60
152,00	1342,72
153,00	1359,76
154,00	1354,33
155,00	1324,65
156,00	1440,65
157,00	1352,74
158,00	1407,50
159,00	1452,82
160,00	1449,26
161,00	1494,67
162,00	1328,58
163,00	1362,85
164,00	1339,63
165,00	1328,49
166,00	1367,06
167,00	1418,65
168,00	1334,95
169,00	1354,42
170,00	1374,36
171,00	1317,44
172,00	1471,54
173,00	1308,36
174,00	1362,00
175,00	1377,55
176,00	1363,22
177,00	1365,94
178,00	1420,14
179,00	1335,79
180,00	1407,97
181,00	1363,32
182,00	1334,67
183,00	1587,16
184,00	1331,48
185,00	1320,34
186,00	1324,74
187,00	1365,94
188,00	1456,75
189,00	1363,03
190,00	1315,76
191,00	1337,66
192,00	1408,35
193,00	1344,59
194,00	1378,95
195,00	1422,02
196,00	1451,32
197,00	1392,43
198,00	1557,11
199,00	1345,81
200,00	1310,61
201,00	1459,00
202,00	1402,64
203,00	1397,39
204,00	1382,51
205,00	1415,84
206,00	1376,33
207,00	1386,91
208,00	1408,63
209,00	1394,77
210,00	1419,30
211,00	1443,92
212,00	1338,13
213,00	1407,88
214,00	1412,84
215,00	1394,40
216,00	1369,40
217,00	1402,36
218,00	1496,82
219,00	1352,83
220,00	1530,24
221,00	1406,19
222,00	1455,53
223,00	1389,34
224,00	1390,09
225,00	1335,70
226,00	1389,34
227,00	1339,82
228,00	1365,19
229,00	1382,69
230,00	1360,79
231,00	1435,59
232,00	1407,60
233,00	1398,80
234,00	1394,87
235,00	1398,42
236,00	1544,29
237,00	1373,43
238,00	1350,49
239,00	1354,05
240,00	1419,39
241,00	1447,20
242,00	1352,27
243,00	1451,60
244,00	1378,95
245,00	1330,36
246,00	1335,23
247,00	1399,64
248,00	1424,08
249,00	1461,90
250,00	1480,62
251,00	1373,52
252,00	1453,10
253,00	1397,67
254,00	1439,62
255,00	1342,06
256,00	1409,85
257,00	1394,87
258,00	1367,81
259,00	1384,94
260,00	1326,15
261,00	1370,06
262,00	1318,85
263,00	1332,14
264,00	1409,10
265,00	1384,94
266,00	1357,89
267,00	1360,60
268,00	1419,39
269,00	1390,28
270,00	1377,45
271,00	1458,25
272,00	1413,22
273,00	1372,49
274,00	1373,61
275,00	1383,16
276,00	1344,03
277,00	1396,74
278,00	1378,48
279,00	1426,79
280,00	1350,86
281,00	1390,75
282,00	1334,29
283,00	1410,22
284,00	1387,10
285,00	1389,06
286,00	1442,61
287,00	1385,41
288,00	1330,55
289,00	1375,49
290,00	1472,67
291,00	1343,47
292,00	1448,98
293,00	1370,06
294,00	1397,77
295,00	1398,70
296,00	1345,25
297,00	1342,53
298,00	1400,11
299,00	1407,69
300,00	1373,80
301,00	1397,77
302,00	1362,19
303,00	1437,65
304,00	1362,47
305,00	1440,37
306,00	1382,13
307,00	1345,43
308,00	1380,07
309,00	1390,47
310,00	1378,29
311,00	1341,13
312,00	1385,97
313,00	1507,21
314,00	1439,99
315,00	1357,04
316,00	1396,64
317,00	1326,05
318,00	1338,88
319,00	1382,69
320,00	1367,06
321,00	1343,65
322,00	1344,03
323,00	1471,92
324,00	1384,66
325,00	1449,54
326,00	1339,72
327,00	1381,38
328,00	1420,89
329,00	1437,93
330,00	1370,99
331,00	1359,57
332,00	1337,85
333,00	1424,92
334,00	1390,75
335,00	1381,76
336,00	1418,74
337,00	1371,27
338,00	1458,15
339,00	1334,76
340,00	1333,36
341,00	1359,20
342,00	1347,49
343,00	1493,82
344,00	1573,03
345,00	1367,81
346,00	1323,62
347,00	1417,33
348,00	1317,91
349,00	1497,94
350,00	1370,99
351,00	1334,11
352,00	1551,21
353,00	1412,75
354,00	1323,62
355,00	1368,37
356,00	1385,04
357,00	1448,89
358,00	1326,71
359,00	1356,39
360,00	1387,28
361,00	1357,98
362,00	1480,62
363,00	1420,89
364,00	1469,58
365,00	1379,70
366,00	1400,39
367,00	1348,80
368,00	1354,80
369,00	1344,40
370,00	1330,08
371,00	1344,68
372,00	1501,69
373,00	1357,98
374,00	1374,46
375,00	1379,42
376,00	1346,09
377,00	1983,65
378,00	1394,30
379,00	1358,54
380,00	1343,00
381,00	1560,11
382,00	1442,80
383,00	1359,85
384,00	1339,25
385,00	1334,11
386,00	1370,34
387,00	1407,13
388,00	1409,47
389,00	1480,06
390,00	1423,70
391,00	1387,10
392,00	1339,35
393,00	1387,56
394,00	1387,10
395,00	1367,15
396,00	1420,89
397,00	1361,44
398,00	1423,14
399,00	1354,61
400,00	1433,53
401,00	1344,97
402,00	1370,15
403,00	1368,00
404,00	1396,83
405,00	1426,04
406,00	1339,44
407,00	1445,05
408,00	1350,11
409,00	1472,85
410,00	1406,29
411,00	1362,29
412,00	1341,69
413,00	1327,93
414,00	1541,20
415,00	1427,54
416,00	1469,48
417,00	1376,14
418,00	1355,92
419,00	1374,55
420,00	1419,49
421,00	1369,87
422,00	1419,21
423,00	1341,69
424,00	1328,96
425,00	1338,13
426,00	1331,39
427,00	1374,18
428,00	1353,77
429,00	1337,57
430,00	1342,44
431,00	1364,63
432,00	1353,95
433,00	1326,71
434,00	1452,54
435,00	1425,67
436,00	1505,34
437,00	1385,13
438,00	1379,98
439,00	1364,16
440,00	1407,97
441,00	1373,24
442,00	1440,65
443,00	1357,60
444,00	1355,08
445,00	1373,61
446,00	1416,12
447,00	1363,50
448,00	1485,87
449,00	1371,37
450,00	1313,42
451,00	1532,40
452,00	1474,44
453,00	1356,57
454,00	1429,41
455,00	1369,49
456,00	1377,55
457,00	1681,44
458,00	1367,81
459,00	1357,14
460,00	1347,87
461,00	1330,55
462,00	1324,46
463,00	1365,66
464,00	1372,58
465,00	1332,89
466,00	1402,45
467,00	1391,68
468,00	1352,27
469,00	1415,18
470,00	1488,11
471,00	1385,60
472,00	1503,19
473,00	1346,37
474,00	1336,26
475,00	1414,43
476,00	1332,33
477,00	1349,46
478,00	1434,37
479,00	1400,39
480,00	1405,07
481,00	1323,06
482,00	1375,21
483,00	1505,90
484,00	1356,20
485,00	1490,92
486,00	1340,75
487,00	1369,96
488,00	1414,06
489,00	1351,80
490,00	1427,17
491,00	1422,86
492,00	1389,72
493,00	1352,55
494,00	1395,61
495,00	1491,01
496,00	1396,08
497,00	1347,87
498,00	1385,97
499,00	1303,21
500,00	1321,56
501,00	1347,49
502,00	1408,07
503,00	1387,28
504,00	1397,58
505,00	1425,29
506,00	1467,98
507,00	1497,29
508,00	1463,12
509,00	1351,89
510,00	1367,43
511,00	1431,47
512,00	1374,64
513,00	1452,16
514,00	1644,55
515,00	1351,99
516,00	1366,69
517,00	1353,67
518,00	1373,33
519,00	1483,81
520,00	1473,79
521,00	1329,99
522,00	1409,75
523,00	1547,37
524,00	1417,62
525,00	1321,19
526,00	1344,97
527,00	1375,30
528,00	1406,94
529,00	1408,63
530,00	1379,89
531,00	1377,55
532,00	1313,42
533,00	1417,33
534,00	1361,72
535,00	1401,98
536,00	1436,34
537,00	1408,53
538,00	1491,76
539,00	1401,89
540,00	1344,31
541,00	1441,58
542,00	1336,54
543,00	1407,22
544,00	1405,07
545,00	1371,83
546,00	1337,76
547,00	1444,02
548,00	1374,83
549,00	1326,52
550,00	1372,58
551,00	1379,89
552,00	1631,92
553,00	1449,26
554,00	1410,03
555,00	1450,20
556,00	1360,69
557,00	1410,31
558,00	1336,82
559,00	1370,80
560,00	1485,49
561,00	1495,79
562,00	1445,80
563,00	1371,46
564,00	1394,40
565,00	1412,37
566,00	1387,56
567,00	1429,60
568,00	1397,21
569,00	1364,25
570,00	1403,39
571,00	1392,24
572,00	1345,71
573,00	1372,86
574,00	1366,40
575,00	1410,03
576,00	1467,80
577,00	1411,81
578,00	1334,67
579,00	1336,73
580,00	1377,45
581,00	1410,59
582,00	1358,07
583,00	1345,34
584,00	1341,03
585,00	1454,69
586,00	1343,19
587,00	1395,52
588,00	1349,55
589,00	1354,14
590,00	1448,42
591,00	1330,83
592,00	1412,65
593,00	1410,13
594,00	1356,86
595,00	1395,43
596,00	1427,91
597,00	1414,53
598,00	1311,54
599,00	1397,96
600,00	1390,56
601,00	4870,09
602,00	1630,32
603,00	1412,00
604,00	1388,41
605,00	1388,31
606,00	1392,90
607,00	1371,27
608,00	1386,16
609,00	1419,96
610,00	1374,55
611,00	1334,48
612,00	1423,70
613,00	1348,80
614,00	1435,03
615,00	1377,08
616,00	1419,21
617,00	1489,24
618,00	1416,59
619,00	1332,14
620,00	1361,16
621,00	1406,19
622,00	1340,28
623,00	1389,72
624,00	1343,47
625,00	1567,22
626,00	1363,69
627,00	1455,44
628,00	1358,73
629,00	1427,63
630,00	1363,03
631,00	1335,04
632,00	1418,46
633,00	1337,10
634,00	1388,12
635,00	1479,31
636,00	1400,67
637,00	1363,41
638,00	1346,46
639,00	1378,39
640,00	1399,45
641,00	1382,51
642,00	1425,01
643,00	1373,24
644,00	1347,68
645,00	1382,04
646,00	1336,35
647,00	1340,66
648,00	1339,35
649,00	1372,21
650,00	1372,86
651,00	1373,80
652,00	1391,21
653,00	1375,11
654,00	1374,92
655,00	1360,60
656,00	1435,78
657,00	1379,61
658,00	1442,43
659,00	1429,60
660,00	1792,20
661,00	1454,78
662,00	1399,83
663,00	1404,32
664,00	1427,17
665,00	1373,43
666,00	1496,73
667,00	1366,40
668,00	1337,10
669,00	1453,47
670,00	1417,71
671,00	1395,61
672,00	1366,12
673,00	1455,06
674,00	1403,01
675,00	1356,57
676,00	1497,85
677,00	1401,04
678,00	1368,65
679,00	1385,60
680,00	1382,60
681,00	1372,49
682,00	1421,17
683,00	1399,92
684,00	1396,93
685,00	1469,01
686,00	1507,87
687,00	1735,09
688,00	1670,11
689,00	1808,95
690,00	1886,57
691,00	1597,09
692,00	1506,84
693,00	1454,13
694,00	1371,18
695,00	1495,32
696,00	1421,45
697,00	1370,99
698,00	1422,30
699,00	1721,42
700,00	1395,05
701,00	1487,08
702,00	1482,03
703,00	1381,01
704,00	1486,24
705,00	1404,51
706,00	1445,51
707,00	1403,29
708,00	1467,61
709,00	1373,71
710,00	1359,20
711,00	1426,70
712,00	1383,82
713,00	1376,33
714,00	1376,89
715,00	1379,42
716,00	1431,10
717,00	1418,65
718,00	1369,03
719,00	1360,60
720,00	1481,00
721,00	1453,00
722,00	1415,93
723,00	1619,65
724,00	1505,53
725,00	1466,02
726,00	1426,42
727,00	1379,98
728,00	1393,27
729,00	1596,71
730,00	1364,81
731,00	1419,58
732,00	1404,70
733,00	1358,45
734,00	1506,09
735,00	1396,64
736,00	1384,47
737,00	1370,71
738,00	1377,92
739,00	1390,47
740,00	1412,09
741,00	1476,04
742,00	1643,06
743,00	1444,02
744,00	1433,34
745,00	1371,09
746,00	1427,63
747,00	1444,67
748,00	1532,86
749,00	1580,70
750,00	1480,90
751,00	1544,85
752,00	1885,72
753,00	2177,54
754,00	2641,34
755,00	3302,40
756,00	4155,39
757,00	5879,89
758,00	7880,77
759,00	5782,34
760,00	3882,11
761,00	2865,00
762,00	2256,46
763,00	1893,12
764,00	1556,46
765,00	1577,15
766,00	1453,57
767,00	1506,18
768,00	1394,87
769,00	1392,43
770,00	1438,87
771,00	1395,05
772,00	1424,26
773,00	1433,81
774,00	1435,78
775,00	1459,56
776,00	1377,92
777,00	1380,92
778,00	1399,27
779,00	1392,62
780,00	1406,57
781,00	1344,59
782,00	1461,15
783,00	1397,58
784,00	1466,77
785,00	1563,85
786,00	1413,03
787,00	1411,34
788,00	1406,19
789,00	1404,04
790,00	1392,15
791,00	1425,95
792,00	1415,84
793,00	1405,16
794,00	1406,10
795,00	1383,54
796,00	1404,04
797,00	1369,49
798,00	1428,01
799,00	1385,32
800,00	1439,80
801,00	1465,83
802,00	1584,45
803,00	1481,56
804,00	1418,46
805,00	1377,83
806,00	1421,74
807,00	1370,52
808,00	1349,55
809,00	1345,62
810,00	1410,69
811,00	1346,46
812,00	1423,23
813,00	1386,72
814,00	1432,78
815,00	1384,38
816,00	1462,83
817,00	1411,25
818,00	1375,39
819,00	1444,58
820,00	1354,42
821,00	1472,01
822,00	1384,75
823,00	1358,45
824,00	1390,65
825,00	1397,21
826,00	1376,80
827,00	1512,83
828,00	1451,23
829,00	1592,97
830,00	1504,96
831,00	1506,18
832,00	1412,37
833,00	1410,97
834,00	1436,25
835,00	1353,11
836,00	1438,87
837,00	1421,92
838,00	1355,17
839,00	1373,89
840,00	1363,97
841,00	5173,80
842,00	1640,62
843,00	1517,70
844,00	1427,26
845,00	1495,79
846,00	1423,33
847,00	1373,61
848,00	1401,42
849,00	1385,50
850,00	1407,04
851,00	1346,56
852,00	1325,02
853,00	1420,71
854,00	1370,24
855,00	1371,74
856,00	1352,55
857,00	1431,85
858,00	1381,10
859,00	1477,81
860,00	1482,78
861,00	1390,00
862,00	1390,37
863,00	1373,61
864,00	1440,83
865,00	1374,46
866,00	1498,60
867,00	1454,32
868,00	1350,86
869,00	1471,64
870,00	1355,08
871,00	1406,47
872,00	1387,66
873,00	1358,54
874,00	1350,02
875,00	1399,27
876,00	1390,56
877,00	1319,97
878,00	1378,01
879,00	1441,40
880,00	1429,88
881,00	1338,32
882,00	1473,69
883,00	1368,56
884,00	1338,22
885,00	1380,26
886,00	1388,69
887,00	1409,19
888,00	1371,18
889,00	1356,57
890,00	1457,40
891,00	1527,81
892,00	1411,34
893,00	1352,64
894,00	1326,62
895,00	1346,93
896,00	1373,80
897,00	1337,76
898,00	1419,11
899,00	1370,62
900,00	1444,39
901,00	1400,95
902,00	1410,69
903,00	1455,53
904,00	1446,64
905,00	1464,24
906,00	1475,01
907,00	1423,70
908,00	1398,24
909,00	1379,14
910,00	1374,18
911,00	1390,18
912,00	1419,21
913,00	1403,76
914,00	1369,03
915,00	1382,51
916,00	1440,83
917,00	1374,64
918,00	1329,80
919,00	1325,49
920,00	1371,37
921,00	1368,37
922,00	1408,72
923,00	1412,75
924,00	1382,41
925,00	1375,58
926,00	1400,20
927,00	1388,41
928,00	1360,41
929,00	1388,59
930,00	1377,36
931,00	1428,38
932,00	1364,35
933,00	1480,25
934,00	1347,49
935,00	1467,61
936,00	1402,92
937,00	1362,19
938,00	1341,31
939,00	1484,65
940,00	1363,78
941,00	1353,67
942,00	1413,31
943,00	1382,13
944,00	1594,00
945,00	1409,28
946,00	1363,50
947,00	1400,58
948,00	1429,32
949,00	1387,28
950,00	1461,15
951,00	1398,61
952,00	1363,88
953,00	1356,01
954,00	1367,34
955,00	1429,41
956,00	1355,08
957,00	1340,10
958,00	1376,61
959,00	1401,98
960,00	1317,16
961,00	1429,41
962,00	1375,86
963,00	1423,05
964,00	1664,68
965,00	1387,10
966,00	1411,44
967,00	1425,29
968,00	1350,21
969,00	1565,16
970,00	1386,35
971,00	1447,57
972,00	1371,27
973,00	1412,00
974,00	1341,31
975,00	1381,20
976,00	1332,33
977,00	1438,77
978,00	1401,33
979,00	1379,89
980,00	1394,12
981,00	1468,36
982,00	1385,41
983,00	1399,55
984,00	1398,05
985,00	1380,07
986,00	1408,63
987,00	1459,75
988,00	1549,62
989,00	1356,11
990,00	1383,16
991,00	1398,33
992,00	1405,07
993,00	1348,62
994,00	1343,09
995,00	1400,01
996,00	1346,28
997,00	1441,30
998,00	1382,88
999,00	1517,98
1000,00	1321,84
1001,00	1399,73
1002,00	1349,46
1003,00	1335,51
1004,00	1464,24
1005,00	1349,74
1006,00	1359,10
1007,00	1413,59
1008,00	1366,40
1009,00	1356,29
1010,00	1368,65
1011,00	1348,52
1012,00	1434,00
1013,00	1333,64
1014,00	1348,99
1015,00	1398,89
1016,00	1407,22
1017,00	1339,91
1018,00	1435,50
1019,00	1424,54
1020,00	1384,75
1021,00	1373,99
1022,00	1401,51
1023,00	1365,37
1024,00	1446,83
1025,00	1357,89
1026,00	1382,23
1027,00	1373,80
1028,00	1473,60
1029,00	1355,17
1030,00	1349,74
1031,00	1334,39
1032,00	1364,72
1033,00	1419,96
1034,00	1368,75
1035,00	1448,60
1036,00	1406,85
1037,00	1412,93
1038,00	1375,11
1039,00	1333,17
1040,00	1378,39
1041,00	1367,81
1042,00	1456,84
1043,00	1414,90
1044,00	1784,61
1045,00	1434,28
1046,00	1356,39
1047,00	1337,38
1048,00	1421,92
1049,00	1386,44
1050,00	1421,36
1051,00	1373,89
1052,00	1405,91
1053,00	1411,06
1054,00	1346,46
1055,00	1436,62
1056,00	1461,34
1057,00	1365,37
1058,00	1378,20
1059,00	1421,36
1060,00	1376,33
1061,00	1407,04
1062,00	1376,24
1063,00	1339,72
1064,00	1482,31
1065,00	1416,21
1066,00	1372,30
1067,00	1431,00
1068,00	1398,24
1069,00	1428,10
1070,00	1433,72
1071,00	1464,24
1072,00	1414,53
1073,00	1398,52
1074,00	1375,49
1075,00	1518,17
1076,00	1369,59
1077,00	1375,30
1078,00	1391,68
1079,00	1345,71
1080,00	1529,59
1081,00	1457,78
1082,00	1359,29
1083,00	1410,41
1084,00	1388,87
1085,00	1450,57
1086,00	1327,27
1087,00	1429,69
1088,00	1421,36
1089,00	1373,89
1090,00	1361,26
1091,00	1460,78
1092,00	1466,86
1093,00	1588,38
1094,00	1401,42
1095,00	1390,00
1096,00	1393,74
1097,00	1425,85
1098,00	1335,88
1099,00	1467,98
1100,00	1377,26
1101,00	1377,08
1102,00	1380,26
1103,00	1460,78
1104,00	1443,74
1105,00	1526,40
1106,00	1398,05
1107,00	1418,27
1108,00	1425,85
1109,00	1356,20
1110,00	1355,36
1111,00	1536,05
1112,00	1447,39
1113,00	1376,05
1114,00	1372,49
1115,00	1331,86
1116,00	1424,26
1117,00	1344,03
1118,00	1373,89
1119,00	1416,59
1120,00	1461,90
1121,00	1728,91
1122,00	1407,69
1123,00	1360,04
1124,00	1454,22
1125,00	1327,55
1126,00	1387,75
1127,00	1397,11
1128,00	1610,85
1129,00	1345,62
1130,00	1333,73
1131,00	1422,95
1132,00	1392,71
1133,00	1411,25
1134,00	1542,13
1135,00	1446,92
1136,00	1486,05
1137,00	1437,37
1138,00	1377,45
1139,00	1399,08
1140,00	1382,98
1141,00	1361,54
1142,00	1346,28
1143,00	1391,68
1144,00	1469,76
1145,00	1532,40
1146,00	1397,39
1147,00	1457,40
1148,00	1405,63
1149,00	1372,49
1150,00	1411,16
1151,00	1489,99
1152,00	1489,14
1153,00	1408,82
1154,00	1444,58
1155,00	1375,21
1156,00	1434,75
1157,00	1407,41
1158,00	1439,43
1159,00	1372,96
1160,00	1372,12
1161,00	1433,06
1162,00	1444,39
1163,00	1382,23
1164,00	1337,66
1165,00	1470,32
1166,00	1495,60
1167,00	1405,91
1168,00	1423,70
1169,00	1388,03
1170,00	1377,26
1171,00	1496,35
1172,00	1366,59
1173,00	1401,70
1174,00	1387,00
1175,00	1361,82
1176,00	1370,15
1177,00	1450,94
1178,00	1551,78
1179,00	1467,14
1180,00	1406,38
1181,00	1426,70
1182,00	1394,30
1183,00	1428,48
1184,00	1365,19
1185,00	1396,46
1186,00	1435,87
1187,00	1419,77
1188,00	1434,09
1189,00	1349,83
1190,00	1374,36
1191,00	1430,35
1192,00	1495,32
1193,00	1389,34
1194,00	1376,42
1195,00	1420,89
1196,00	1474,44
1197,00	1360,79
1198,00	1473,79
1199,00	1447,29
1200,00	1389,34
1201,00	1347,96
1202,00	1415,28
1203,00	1401,61
1204,00	1340,10
1205,00	1410,59
1206,00	1338,22
1207,00	1427,54
1208,00	1440,74
1209,00	1331,76
1210,00	1364,25
1211,00	1419,21
1212,00	1370,24
1213,00	1344,50
1214,00	1341,78
1215,00	1399,92
1216,00	1333,17
1217,00	1410,50
1218,00	1363,69
1219,00	1372,02
1220,00	1384,10
1221,00	1502,81
1222,00	1451,69
1223,00	1355,83
1224,00	1390,84
1225,00	1358,07
1226,00	1358,07
1227,00	1396,55
1228,00	1354,98
1229,00	1402,45
1230,00	1371,09
1231,00	1379,61
1232,00	1355,36
1233,00	1358,07
1234,00	1403,57
1235,00	1354,80
1236,00	1447,86
1237,00	1408,53
1238,00	1410,03
1239,00	1425,01
1240,00	1368,65
1241,00	1454,13
1242,00	1421,83
1243,00	1479,59
1244,00	1347,59
1245,00	1386,16
1246,00	1404,98
1247,00	1472,95
1248,00	1434,47
1249,00	1435,78
1250,00	1388,59
1251,00	1421,92
1252,00	1401,14
1253,00	1472,57
1254,00	1378,39
1255,00	1435,03
1256,00	1390,47
1257,00	1414,53
1258,00	1357,89
1259,00	1325,49
1260,00	1431,10
1261,00	1391,50
1262,00	1361,63
1263,00	1386,16
1264,00	1422,11
1265,00	1358,54
1266,00	1549,15
1267,00	1384,38
1268,00	1349,08
1269,00	1367,34
1270,00	1433,62
1271,00	1360,79
1272,00	1389,15
1273,00	1420,71
1274,00	1370,99
1275,00	1366,78
1276,00	1558,14
1277,00	2060,23
1278,00	1498,88
1279,00	1425,57
1280,00	1385,97
1281,00	1372,21
1282,00	1361,07
1283,00	1356,67
1284,00	1370,06
1285,00	1577,61
1286,00	1358,26
1287,00	1405,54
1288,00	1402,36
1289,00	1563,48
1290,00	1395,90
1291,00	1376,05
1292,00	1409,47
1293,00	1373,43
1294,00	1338,32
1295,00	1366,69
1296,00	1472,76
1297,00	1371,55
1298,00	1397,67
1299,00	1338,32
1300,00	1414,81
1301,00	1441,02
1302,00	1505,90
1303,00	1377,92
1304,00	1528,18
1305,00	1426,04
1306,00	1404,88
1307,00	1410,03
1308,00	1431,94
1309,00	1352,46
1310,00	1357,79
1311,00	1385,13
1312,00	1367,62
1313,00	1364,72
1314,00	1407,88
1315,00	1510,02
1316,00	1343,94
1317,00	1330,64
1318,00	1392,90
1319,00	1431,10
1320,00	1370,80
1321,00	1420,89
1322,00	1913,06
1323,00	1381,48
1324,00	1357,70
1325,00	1361,91
1326,00	1357,60
1327,00	1328,11
1328,00	1412,93
1329,00	1343,94
1330,00	1392,99
1331,00	1427,07
1332,00	1356,01
1333,00	1382,69
1334,00	1356,76
1335,00	1451,23
1336,00	1437,65
1337,00	1466,11
1338,00	1430,25
1339,00	1365,47
1340,00	1399,64
1341,00	1434,94
1342,00	1405,16
1343,00	1499,44
1344,00	1420,05
1345,00	1318,00
1346,00	1354,80
1347,00	1399,83
1348,00	1396,08
1349,00	1329,99
1350,00	1549,72
1351,00	1492,04
1352,00	1422,48
1353,00	1374,92
1354,00	1675,54
1355,00	1368,56
1356,00	1330,27
1357,00	1342,81
1358,00	1407,22
1359,00	1436,62
1360,00	1376,05
1361,00	1359,10
1362,00	1364,53
1363,00	1375,49
1364,00	1417,71
1365,00	1484,84
1366,00	1359,01
1367,00	1325,68
1368,00	1367,06
1369,00	1364,06
1370,00	1421,08
1371,00	1363,97
1372,00	1331,58
1373,00	1516,48
1374,00	1359,94
1375,00	1399,45
1376,00	1415,18
1377,00	1427,54
1378,00	1476,41
1379,00	1405,63
1380,00	1642,40
1381,00	1361,63
1382,00	1337,48
1383,00	1517,88
1384,00	1363,22
1385,00	1416,21
1386,00	1479,50
1387,00	1472,76
1388,00	1391,12
1389,00	1457,12
1390,00	1354,89
1391,00	1355,45
1392,00	1496,16
1393,00	1420,05
1394,00	1392,53
1395,00	1355,92
1396,00	1459,56
1397,00	1356,67
1398,00	1625,17
1399,00	1844,34
1400,00	1460,49
1401,00	1480,72
1402,00	1813,26
1403,00	1419,77
1404,00	1369,96
1405,00	1367,15
1406,00	1382,23
1407,00	1377,08
1408,00	1394,96
1409,00	1366,78
1410,00	1344,97
1411,00	3245,67
1412,00	1498,41
1413,00	1347,59
1414,00	1333,17
1415,00	1353,58
1416,00	1320,53
1417,00	1325,68
1418,00	1417,52
1419,00	1428,66
1420,00	1359,10
1421,00	1334,11
1422,00	1324,56
1423,00	1312,29
1424,00	1385,78
1425,00	1317,72
1426,00	1403,67
1427,00	1412,56
1428,00	1319,50
1429,00	1385,60
1430,00	1309,58
1431,00	1325,40
1432,00	1414,99
1433,00	1365,56
1434,00	1434,28
1435,00	1409,10
1436,00	1389,34
1437,00	1480,34
1438,00	1382,88
1439,00	1373,43
1440,00	1391,31
1441,00	1383,35
1442,00	1358,82
1443,00	1345,15
1444,00	1341,78
1445,00	1347,03
1446,00	1413,59
1447,00	1390,00
1448,00	1416,30
1449,00	1376,61
1450,00	1369,12
1451,00	1352,74
1452,00	1476,69
1453,00	1365,19
1454,00	1454,50
1455,00	1451,88
1456,00	1352,46
1457,00	1467,14
1458,00	1425,95
1459,00	1364,44
1460,00	1357,89
1461,00	1388,78
1462,00	1374,55
1463,00	1401,14
1464,00	1358,35
1465,00	1380,92
1466,00	1355,17
1467,00	1431,00
1468,00	1360,04
1469,00	1344,03
1470,00	1349,74
1471,00	1411,06
1472,00	1374,46
1473,00	1333,64
1474,00	1385,78
1475,00	1345,71
1476,00	1559,83
1477,00	1437,46
1478,00	1808,58
1479,00	1535,49
1480,00	1406,29
1481,00	1367,25
1482,00	1363,50
1483,00	1354,61
1484,00	1453,10
1485,00	1443,36
1486,00	1358,45
1487,00	1413,22
1488,00	1414,25
1489,00	1407,60
1490,00	1417,33
1491,00	1408,25
1492,00	1377,55
1493,00	1338,79
1494,00	1336,07
1495,00	1421,74
1496,00	1356,95
1497,00	1489,05
1498,00	1463,02
1499,00	1422,02
1500,00	1380,73
1501,00	1398,99
1502,00	1347,96
1503,00	1517,04
1504,00	1379,32
1505,00	1454,69
1506,00	1326,33
1507,00	1310,04
1508,00	1378,29
1509,00	1343,56
1510,00	1315,94
1511,00	1413,78
1512,00	1368,37
1513,00	1374,55
1514,00	1380,64
1515,00	1392,06
1516,00	1906,13
1517,00	1527,62
1518,00	1392,15
1519,00	1387,28
1520,00	1424,92
1521,00	1352,55
1522,00	1413,31
1523,00	1376,80
1524,00	1373,05
1525,00	1344,31
1526,00	1363,78
1527,00	1328,77
1528,00	1384,47
1529,00	1311,07
1530,00	1329,05
1531,00	1351,61
1532,00	1339,44
1533,00	1283,18
1534,00	1372,58
1535,00	1320,34
1536,00	1378,58
1537,00	1422,76
1538,00	1415,56
1539,00	1441,68
1540,00	1416,21
1541,00	1400,30
1542,00	1361,82
1543,00	1368,37
1544,00	1436,71
1545,00	1401,79
1546,00	1384,10
1547,00	1407,79
1548,00	1372,96
1549,00	1355,83
1550,00	1359,48
1551,00	1390,65
1552,00	1344,12
1553,00	1332,98
1554,00	1355,08
1555,00	1327,83
1556,00	1341,88
1557,00	1420,99
1558,00	1364,91
1559,00	1343,56
1560,00	1351,43
1561,00	1348,62
1562,00	1451,32
1563,00	1381,20
1564,00	1335,42
1565,00	1366,87
1566,00	1391,21
1567,00	1436,81
1568,00	1385,32
1569,00	1379,61
1570,00	1395,33
1571,00	1399,83
1572,00	1428,94
1573,00	1388,59
1574,00	1485,49
1575,00	1352,74
1576,00	1327,18
1577,00	1351,61
1578,00	1415,28
1579,00	1371,55
1580,00	1342,16
1581,00	1365,66
1582,00	1329,89
1583,00	1503,65
1584,00	1385,97
1585,00	1318,85
1586,00	1376,05
1587,00	1395,33
1588,00	1456,75
1589,00	1372,21
1590,00	1408,35
1591,00	1378,29
1592,00	1515,36
1593,00	1341,13
1594,00	1381,48
1595,00	1337,29
1596,00	1376,14
1597,00	1346,18
1598,00	1356,86
1599,00	1358,92
1600,00	1309,39
1601,00	1410,03
1602,00	1448,98
1603,00	1387,38
1604,00	1362,38
1605,00	1486,90
1606,00	1347,77
1607,00	1354,98
1608,00	1339,54
1609,00	1359,20
1610,00	1325,87
1611,00	1455,06
1612,00	1353,30
1613,00	1385,13
1614,00	1344,40
1615,00	1358,07
1616,00	1417,05
1617,00	1391,96
1618,00	1397,67
1619,00	1369,59
1620,00	1441,02
1621,00	1413,03
1622,00	1357,51
1623,00	1454,03
1624,00	1425,95
1625,00	1389,90
1626,00	1498,32
1627,00	1382,04
1628,00	1383,91
1629,00	1902,76
1630,00	1428,66
1631,00	1357,89
1632,00	1411,53
1633,00	1362,94
1634,00	1381,76
1635,00	1350,58
1636,00	1370,80
1637,00	1357,89
1638,00	1324,37
1639,00	1323,62
1640,00	1398,14
1641,00	1469,86
1642,00	1468,17
1643,00	1353,86
1644,00	1543,82
1645,00	1445,70
1646,00	1374,08
1647,00	1439,15
1648,00	1391,31
1649,00	1371,65
1650,00	1551,87
1651,00	1458,90
1652,00	1341,97
1653,00	1360,60
1654,00	1385,13
1655,00	1390,00
1656,00	1369,31
1657,00	1476,78
1658,00	1371,18
1659,00	1432,97
1660,00	1412,75
1661,00	1448,32
1662,00	1399,92
1663,00	1424,92
1664,00	1419,68
1665,00	1348,05
1666,00	1391,50
1667,00	1513,67
1668,00	1342,53
1669,00	1344,78
1670,00	1413,78
1671,00	1332,05
1672,00	1319,69
1673,00	1417,99
1674,00	1404,51
1675,00	1394,21
1676,00	1386,81
1677,00	1377,08
1678,00	1398,70
1679,00	1407,13
1680,00	1407,50
1681,00	1401,33
1682,00	1577,33
1683,00	1429,32
1684,00	1461,43
1685,00	1420,52
1686,00	1335,98
1687,00	1354,80
1688,00	1423,51
1689,00	1333,54
1690,00	1349,18
1691,00	1340,00
1692,00	1344,12
1693,00	1464,89
1694,00	1348,15
1695,00	1384,38
1696,00	1375,02
1697,00	1395,05
1698,00	1352,46
1699,00	1399,92
1700,00	1399,36
1701,00	1471,92
1702,00	1349,65
1703,00	1335,32
1704,00	1348,52
1705,00	1405,82
1706,00	1341,22
1707,00	1361,44
1708,00	1353,86
1709,00	1407,60
1710,00	1369,49
1711,00	1319,31
1712,00	1382,69
1713,00	1506,93
1714,00	1411,25
1715,00	1387,38
1716,00	1477,35
1717,00	1376,33
1718,00	1487,74
1719,00	1447,76
1720,00	1355,64
1721,00	1412,09
1722,00	1346,74
1723,00	1445,23
1724,00	1370,34
1725,00	1380,35
1726,00	1405,54
1727,00	1357,89
1728,00	1460,31
1729,00	1323,34
1730,00	1524,81
1731,00	1414,34
1732,00	1527,15
1733,00	1410,22
1734,00	1341,97
1735,00	1367,06
1736,00	1363,32
1737,00	1338,97
1738,00	1363,97
1739,00	1428,19
1740,00	1412,47
1741,00	1542,32
1742,00	1410,31
1743,00	1353,86
1744,00	1344,31
1745,00	1339,44
1746,00	1348,71
1747,00	1374,08
1748,00	1430,72
1749,00	1511,14
1750,00	1432,13
1751,00	1560,11
1752,00	1366,31
1753,00	1353,58
1754,00	1367,34
1755,00	1406,29
1756,00	1357,70
1757,00	1489,70
1758,00	1347,21
1759,00	1343,19
1760,00	1349,65
1761,00	1408,35
1762,00	1376,80
1763,00	1336,45
1764,00	1428,85
1765,00	1345,34
1766,00	1336,91
1767,00	1340,28
1768,00	1368,46
1769,00	1397,49
1770,00	1333,08
1771,00	1352,36
1772,00	1521,91
1773,00	1354,98
1774,00	1314,63
1775,00	1363,41
1776,00	1364,44
1777,00	1326,05
1778,00	1353,58
1779,00	1340,75
1780,00	1339,72
1781,00	1330,83
1782,00	1343,65
1783,00	1399,64
1784,00	1381,76
1785,00	1376,70
1786,00	1398,70
1787,00	1339,91
1788,00	1382,69
1789,00	1400,20
1790,00	1473,32
1791,00	1332,79
1792,00	1394,12
1793,00	1354,42
1794,00	1326,71
1795,00	1349,46
1796,00	1333,92
1797,00	1312,67
1798,00	1357,89
1799,00	1332,98
1800,00	1415,56
1801,00	1384,29
1802,00	1445,80
1803,00	1372,86
1804,00	1409,85
1805,00	1376,42
1806,00	1390,37
1807,00	1377,92
1808,00	1337,29
1809,00	1377,17
1810,00	1427,73
1811,00	1378,48
1812,00	1346,84
1813,00	1356,20
1814,00	1368,28
1815,00	1410,97
1816,00	1579,96
1817,00	1367,62
1818,00	1794,54
1819,00	1476,04
1820,00	1440,37
1821,00	1350,68
1822,00	1316,41
1823,00	1339,44
1824,00	1386,53
1825,00	1511,14
1826,00	1338,60
1827,00	1483,34
1828,00	1534,64
1829,00	1380,07
1830,00	1433,91
1831,00	1345,25
1832,00	1325,30
1833,00	1314,63
1834,00	1343,47
1835,00	1384,47
1836,00	1325,59
1837,00	1321,19
1838,00	1404,60
1839,00	1476,50
1840,00	1557,21
1841,00	1428,57
1842,00	1429,41
1843,00	1415,84
1844,00	1508,99
1845,00	1414,90
1846,00	1330,55
1847,00	1361,91
1848,00	1401,51
1849,00	1360,13
1850,00	1394,58
1851,00	1420,24
1852,00	1339,82
1853,00	1334,29
1854,00	1337,66
1855,00	1333,64
1856,00	1332,79
1857,00	1357,79
1858,00	1511,05
1859,00	1322,50
1860,00	1388,97
1861,00	1706,63
1862,00	1376,89
1863,00	1355,36
1864,00	1329,80
1865,00	1367,15
1866,00	1430,16
1867,00	1345,43
1868,00	1387,84
1869,00	1332,79
1870,00	1357,98
1871,00	1324,74
1872,00	1378,01
1873,00	1384,66
1874,00	1405,16
1875,00	1361,72
1876,00	1341,41
1877,00	1377,64
1878,00	1458,34
1879,00	1438,12
1880,00	1323,34
1881,00	1399,73
1882,00	1354,33
1883,00	1359,85
1884,00	1337,29
1885,00	1385,41
1886,00	1392,53
1887,00	1333,54
1888,00	1350,21
1889,00	1382,69
1890,00	1313,51
1891,00	1420,71
1892,00	1467,89
1893,00	1372,86
1894,00	1414,34
1895,00	1378,86
1896,00	1435,12
1897,00	1581,55
1898,00	1357,70
1899,00	1381,85
1900,00	1369,31
1901,00	1398,52
1902,00	1379,42
1903,00	1500,28
1904,00	1408,07
1905,00	1718,89
1906,00	1369,68
1907,00	1342,91
1908,00	1699,88
1909,00	1370,99
1910,00	1349,55
1911,00	1377,92
1912,00	1406,19
1913,00	1485,96
1914,00	1346,09
1915,00	1359,01
1916,00	1401,89
1917,00	1380,17
1918,00	1379,98
1919,00	1382,41
1920,00	1330,92
1921,00	1460,40
1922,00	1374,27
1923,00	1380,17
1924,00	1404,98
1925,00	1357,23
1926,00	1368,75
1927,00	1423,14
1928,00	1461,71
1929,00	1404,23
1930,00	1355,64
1931,00	1412,56
1932,00	1568,07
1933,00	1394,49
1934,00	1310,79
1935,00	1345,34
1936,00	1373,15
1937,00	1334,85
1938,00	1376,52
1939,00	1353,30
1940,00	1527,06
1941,00	1332,14
1942,00	1354,42
1943,00	1351,61
1944,00	1390,37
1945,00	1354,23
1946,00	1333,26
1947,00	1327,83
1948,00	1538,95
1949,00	1340,75
1950,00	1406,01
1951,00	1353,30
1952,00	1361,44
1953,00	1334,76
1954,00	1410,78
1955,00	1359,10
1956,00	1355,08
1957,00	1403,39
1958,00	1322,96
1959,00	1364,06
1960,00	1342,91
1961,00	1448,42
1962,00	1328,77
1963,00	1415,46
1964,00	1332,33
1965,00	1398,42
1966,00	1335,88
1967,00	1449,07
1968,00	1345,53
1969,00	1328,11
1970,00	1376,61
1971,00	1419,77
1972,00	1375,77
1973,00	1414,34
1974,00	1395,80
1975,00	1418,18
1976,00	1400,95
1977,00	1391,12
1978,00	1387,19
1979,00	1382,98
1980,00	1735,18
1981,00	1388,87
1982,00	1335,14
1983,00	1375,67
1984,00	1367,43
1985,00	1486,71
1986,00	1329,99
1987,00	1331,67
1988,00	1330,27
1989,00	1363,60
1990,00	1484,46
1991,00	1411,62
1992,00	1430,07
1993,00	1590,72
1994,00	1396,93
1995,00	1335,51
1996,00	1393,37
1997,00	1388,41
1998,00	1394,77
1999,00	1314,91
2000,00	1318,66
2001,00	1364,53
2002,00	1456,28
2003,00	1312,95
2004,00	1423,33
2005,00	1330,92
2006,00	1492,23
2007,00	1361,07
2008,00	1312,48
2009,00	1483,34
2010,00	1344,40
2011,00	1319,41
2012,00	1368,84
2013,00	1350,40
2014,00	1374,83
2015,00	1334,39
2016,00	1322,59
2017,00	1360,04
2018,00	1379,79
2019,00	1327,65
2020,00	1332,70
2021,00	1399,45
2022,00	1383,44
2023,00	1375,21
2024,00	1344,22
2025,00	1463,58
2026,00	1352,64
2027,00	1343,65
2028,00	1402,92
2029,00	1345,71
2030,00	1334,57
2031,00	1340,00
2032,00	1341,22
2033,00	1375,39
2034,00	1472,85
2035,00	1393,09
2036,00	1380,45
2037,00	1343,56
2038,00	1361,07
2039,00	1359,29
2040,00	1392,71
2041,00	1386,63
2042,00	1318,75
2043,00	1359,20
2044,00	1412,47
2045,00	1343,75
2046,00	1343,75
2047,00	1343,75
>>>>>End Processed Spectral Data<<<<<
