SpectraSuite Datei
++++++++++++++++++++++++++++++++++++
Datum: Thu Sep 19 16:10:30 CEST 2024
Benutzer: Student
Dark-Spektrum vorhanden: Nein
Referenz-Spektrum vorhanden: Nein
Zahl der probierten Teilspektren: 1
Spektrometer: USB2+H15728
Integrationszeit (usec): 800000 (USB2+H15728)
Spektren Durchschnitt berechnet: 80 (USB2+H15728)
Boxcar Glättung: 0 (USB2+H15728)
Dunkelstromkorrektur: Nein (USB2+H15728)
Puls/Lampe aktiviert: Nein (USB2+H15728)
Correct for Detector Non-linearity: Nein (USB2+H15728)
Streulichtkorrektur: Nein (USB2+H15728)
Anzahl Pixel in verarbeitetem Spektrum: 2048
>>>>>Begin Processed Spectral Data<<<<<
0,00	988,35
1,00	988,35
2,00	988,35
3,00	958,95
4,00	1044,05
5,00	1038,52
6,00	1030,68
7,00	1040,98
8,00	1125,24
9,00	1079,69
10,00	1097,13
11,00	1164,62
12,00	1103,21
13,00	1323,28
14,00	1126,82
15,00	1179,43
16,00	1181,62
17,00	1276,15
18,00	1202,33
19,00	1337,65
20,00	1233,02
21,00	1250,02
22,00	1291,33
23,00	1349,87
24,00	1289,11
25,00	1327,00
26,00	1361,02
27,00	1434,22
28,00	1364,77
29,00	1372,46
30,00	1417,75
31,00	1393,23
32,00	1534,92
33,00	1394,78
34,00	1417,37
35,00	1433,23
36,00	1427,96
37,00	1385,33
38,00	1419,21
39,00	1550,93
40,00	1386,97
41,00	1489,52
42,00	1418,72
43,00	1459,03
44,00	1397,71
45,00	1400,31
46,00	1375,15
47,00	1455,35
48,00	1397,88
49,00	1513,57
50,00	1410,76
51,00	1439,72
52,00	1393,91
53,00	1518,95
54,00	1410,55
55,00	1391,68
56,00	1479,83
57,00	1395,98
58,00	1395,95
59,00	1408,04
60,00	1335,92
61,00	1396,92
62,00	1373,75
63,00	1350,14
64,00	1367,17
65,00	1341,24
66,00	1371,09
67,00	1359,09
68,00	1376,41
69,00	1350,52
70,00	1777,20
71,00	1399,79
72,00	1371,41
73,00	1370,30
74,00	1359,35
75,00	1346,54
76,00	1346,25
77,00	1397,50
78,00	1366,81
79,00	1368,89
80,00	1370,94
81,00	1330,30
82,00	1404,23
83,00	1325,71
84,00	1518,54
85,00	1407,95
86,00	1559,73
87,00	1521,64
88,00	1346,69
89,00	1333,26
90,00	1372,05
91,00	1475,18
92,00	1398,18
93,00	1425,18
94,00	1357,01
95,00	1346,10
96,00	1358,01
97,00	1725,82
98,00	1373,34
99,00	1358,04
100,00	1407,92
101,00	1435,54
102,00	1369,13
103,00	1360,82
104,00	1363,42
105,00	1451,48
106,00	1403,71
107,00	1421,06
108,00	1423,78
109,00	1380,83
110,00	1526,41
111,00	1442,09
112,00	1381,03
113,00	1427,23
114,00	1371,55
115,00	1380,13
116,00	1382,14
117,00	1355,32
118,00	1380,62
119,00	1546,51
120,00	1379,83
121,00	1357,31
122,00	1405,23
123,00	1356,28
124,00	1358,74
125,00	1361,23
126,00	1385,07
127,00	1422,40
128,00	1379,42
129,00	1423,86
130,00	1406,37
131,00	1446,10
132,00	1367,55
133,00	1461,61
134,00	1393,70
135,00	1374,10
136,00	1362,46
137,00	1437,97
138,00	1520,03
139,00	1417,90
140,00	1407,86
141,00	1474,24
142,00	1394,52
143,00	1366,11
144,00	1399,14
145,00	1376,91
146,00	1397,01
147,00	1503,79
148,00	1762,57
149,00	1466,46
150,00	1359,70
151,00	1433,20
152,00	1365,56
153,00	1368,42
154,00	1374,25
155,00	1364,97
156,00	1450,87
157,00	1377,61
158,00	1416,49
159,00	1462,60
160,00	1457,48
161,00	1482,03
162,00	1355,78
163,00	1388,23
164,00	1360,64
165,00	1354,38
166,00	1375,27
167,00	1421,38
168,00	1356,87
169,00	1370,06
170,00	1390,57
171,00	1346,86
172,00	1461,43
173,00	1349,44
174,00	1379,60
175,00	1387,35
176,00	1384,87
177,00	1377,26
178,00	1423,66
179,00	1355,93
180,00	1424,16
181,00	1371,23
182,00	1357,69
183,00	1550,25
184,00	1360,58
185,00	1354,88
186,00	1346,69
187,00	1383,61
188,00	1453,71
189,00	1380,04
190,00	1339,66
191,00	1354,09
192,00	1415,94
193,00	1360,00
194,00	1382,03
195,00	1438,17
196,00	1449,73
197,00	1408,15
198,00	1535,25
199,00	1374,71
200,00	1347,89
201,00	1443,73
202,00	1410,67
203,00	1403,27
204,00	1400,72
205,00	1423,02
206,00	1383,81
207,00	1395,84
208,00	1410,03
209,00	1400,43
210,00	1438,00
211,00	1444,46
212,00	1360,70
213,00	1404,64
214,00	1426,29
215,00	1402,71
216,00	1393,64
217,00	1387,82
218,00	1478,72
219,00	1376,50
220,00	1517,02
221,00	1415,59
222,00	1446,77
223,00	1402,62
224,00	1397,59
225,00	1355,81
226,00	1407,33
227,00	1370,59
228,00	1383,34
229,00	1400,20
230,00	1372,23
231,00	1425,85
232,00	1417,69
233,00	1399,49
234,00	1399,67
235,00	1410,00
236,00	1527,40
237,00	1404,06
238,00	1370,27
239,00	1370,68
240,00	1425,83
241,00	1445,60
242,00	1381,09
243,00	1444,81
244,00	1398,35
245,00	1364,33
246,00	1363,68
247,00	1395,25
248,00	1429,72
249,00	1456,63
250,00	1466,32
251,00	1391,80
252,00	1451,40
253,00	1408,86
254,00	1443,70
255,00	1366,23
256,00	1417,93
257,00	1404,70
258,00	1385,01
259,00	1384,84
260,00	1361,40
261,00	1388,96
262,00	1344,78
263,00	1356,93
264,00	1417,08
265,00	1407,39
266,00	1379,25
267,00	1389,14
268,00	1429,34
269,00	1413,10
270,00	1398,44
271,00	1441,57
272,00	1428,02
273,00	1388,52
274,00	1386,94
275,00	1398,79
276,00	1371,82
277,00	1408,07
278,00	1388,55
279,00	1433,43
280,00	1367,93
281,00	1400,34
282,00	1356,25
283,00	1422,11
284,00	1401,45
285,00	1404,06
286,00	1430,95
287,00	1400,20
288,00	1359,76
289,00	1386,56
290,00	1457,16
291,00	1376,21
292,00	1448,15
293,00	1387,50
294,00	1420,59
295,00	1414,24
296,00	1365,44
297,00	1364,47
298,00	1404,44
299,00	1407,07
300,00	1410,23
301,00	1417,96
302,00	1387,41
303,00	1445,78
304,00	1372,93
305,00	1437,76
306,00	1398,29
307,00	1365,18
308,00	1401,98
309,00	1399,14
310,00	1389,58
311,00	1372,58
312,00	1401,95
313,00	1495,43
314,00	1441,10
315,00	1374,01
316,00	1412,72
317,00	1363,65
318,00	1363,74
319,00	1415,97
320,00	1390,48
321,00	1372,52
322,00	1356,05
323,00	1460,41
324,00	1390,01
325,00	1445,28
326,00	1368,42
327,00	1404,09
328,00	1432,55
329,00	1439,75
330,00	1389,58
331,00	1382,55
332,00	1364,91
333,00	1432,12
334,00	1389,87
335,00	1404,09
336,00	1420,76
337,00	1395,84
338,00	1456,98
339,00	1367,81
340,00	1362,31
341,00	1376,82
342,00	1356,19
343,00	1473,81
344,00	1544,14
345,00	1373,54
346,00	1358,15
347,00	1430,24
348,00	1351,89
349,00	1487,79
350,00	1388,58
351,00	1353,27
352,00	1535,68
353,00	1440,16
354,00	1351,69
355,00	1375,97
356,00	1403,82
357,00	1462,16
358,00	1365,82
359,00	1379,63
360,00	1404,94
361,00	1389,14
362,00	1460,06
363,00	1427,43
364,00	1472,75
365,00	1392,21
366,00	1414,03
367,00	1370,71
368,00	1385,13
369,00	1383,14
370,00	1359,06
371,00	1373,28
372,00	1495,40
373,00	1381,35
374,00	1398,88
375,00	1399,70
376,00	1367,19
377,00	1856,45
378,00	1400,08
379,00	1369,89
380,00	1365,76
381,00	1534,89
382,00	1443,93
383,00	1379,25
384,00	1370,73
385,00	1366,55
386,00	1394,75
387,00	1407,72
388,00	1418,60
389,00	1474,42
390,00	1430,21
391,00	1405,76
392,00	1364,91
393,00	1398,94
394,00	1401,78
395,00	1381,35
396,00	1425,06
397,00	1383,70
398,00	1430,92
399,00	1382,23
400,00	1430,89
401,00	1378,46
402,00	1390,69
403,00	1385,60
404,00	1407,86
405,00	1425,01
406,00	1374,22
407,00	1454,73
408,00	1385,68
409,00	1463,77
410,00	1420,97
411,00	1384,95
412,00	1360,55
413,00	1358,39
414,00	1524,45
415,00	1428,05
416,00	1469,30
417,00	1390,69
418,00	1379,60
419,00	1384,08
420,00	1432,26
421,00	1395,28
422,00	1431,53
423,00	1370,06
424,00	1360,64
425,00	1365,23
426,00	1358,74
427,00	1389,14
428,00	1382,09
429,00	1361,93
430,00	1368,07
431,00	1382,29
432,00	1369,39
433,00	1357,63
434,00	1452,98
435,00	1431,50
436,00	1500,87
437,00	1404,20
438,00	1400,99
439,00	1387,26
440,00	1413,36
441,00	1383,81
442,00	1437,53
443,00	1377,93
444,00	1376,97
445,00	1383,72
446,00	1426,50
447,00	1384,98
448,00	1486,24
449,00	1391,48
450,00	1358,51
451,00	1503,15
452,00	1471,70
453,00	1382,41
454,00	1433,08
455,00	1375,21
456,00	1398,09
457,00	1646,48
458,00	1390,40
459,00	1377,02
460,00	1372,99
461,00	1363,63
462,00	1368,10
463,00	1391,51
464,00	1400,90
465,00	1358,45
466,00	1412,22
467,00	1399,35
468,00	1378,60
469,00	1420,62
470,00	1479,39
471,00	1406,63
472,00	1488,93
473,00	1363,68
474,00	1366,35
475,00	1423,10
476,00	1369,80
477,00	1376,35
478,00	1434,13
479,00	1410,35
480,00	1402,98
481,00	1351,48
482,00	1397,83
483,00	1491,33
484,00	1387,56
485,00	1472,90
486,00	1360,82
487,00	1384,87
488,00	1426,82
489,00	1372,99
490,00	1424,36
491,00	1429,25
492,00	1400,37
493,00	1362,48
494,00	1398,97
495,00	1469,68
496,00	1410,61
497,00	1378,37
498,00	1401,57
499,00	1351,19
500,00	1357,04
501,00	1373,66
502,00	1416,84
503,00	1391,54
504,00	1405,61
505,00	1431,47
506,00	1464,85
507,00	1486,12
508,00	1456,11
509,00	1362,86
510,00	1385,77
511,00	1433,37
512,00	1400,99
513,00	1453,77
514,00	1608,47
515,00	1382,96
516,00	1395,08
517,00	1379,57
518,00	1388,82
519,00	1474,68
520,00	1471,90
521,00	1356,16
522,00	1423,19
523,00	1536,74
524,00	1431,35
525,00	1359,21
526,00	1370,21
527,00	1394,93
528,00	1424,63
529,00	1422,26
530,00	1393,79
531,00	1397,04
532,00	1347,97
533,00	1423,13
534,00	1380,80
535,00	1421,52
536,00	1435,07
537,00	1428,02
538,00	1479,72
539,00	1418,74
540,00	1371,61
541,00	1441,95
542,00	1359,47
543,00	1408,83
544,00	1427,29
545,00	1390,60
546,00	1362,34
547,00	1448,82
548,00	1396,92
549,00	1367,22
550,00	1387,03
551,00	1398,85
552,00	1587,79
553,00	1459,44
554,00	1425,74
555,00	1454,41
556,00	1371,52
557,00	1419,51
558,00	1356,66
559,00	1383,52
560,00	1479,45
561,00	1486,94
562,00	1444,87
563,00	1391,04
564,00	1419,04
565,00	1426,26
566,00	1405,87
567,00	1431,03
568,00	1415,03
569,00	1394,78
570,00	1402,92
571,00	1409,97
572,00	1360,32
573,00	1392,82
574,00	1382,41
575,00	1420,56
576,00	1453,06
577,00	1415,47
578,00	1361,11
579,00	1367,96
580,00	1398,47
581,00	1416,14
582,00	1382,12
583,00	1370,76
584,00	1356,46
585,00	1454,56
586,00	1376,18
587,00	1393,58
588,00	1369,36
589,00	1387,09
590,00	1446,07
591,00	1364,77
592,00	1422,72
593,00	1410,14
594,00	1377,70
595,00	1407,54
596,00	1436,21
597,00	1411,66
598,00	1362,16
599,00	1413,80
600,00	1395,11
601,00	3992,81
602,00	1584,89
603,00	1422,23
604,00	1399,38
605,00	1401,89
606,00	1398,35
607,00	1382,61
608,00	1406,22
609,00	1418,31
610,00	1395,49
611,00	1365,64
612,00	1425,53
613,00	1380,51
614,00	1431,71
615,00	1405,29
616,00	1417,05
617,00	1469,51
618,00	1418,83
619,00	1366,70
620,00	1385,01
621,00	1418,28
622,00	1374,83
623,00	1405,84
624,00	1359,06
625,00	1552,45
626,00	1365,00
627,00	1460,38
628,00	1392,71
629,00	1430,68
630,00	1384,75
631,00	1372,26
632,00	1425,12
633,00	1370,24
634,00	1399,23
635,00	1471,03
636,00	1410,79
637,00	1380,56
638,00	1364,18
639,00	1395,05
640,00	1416,32
641,00	1397,36
642,00	1423,84
643,00	1401,54
644,00	1371,70
645,00	1403,44
646,00	1365,67
647,00	1367,96
648,00	1376,26
649,00	1394,84
650,00	1396,01
651,00	1384,40
652,00	1414,74
653,00	1384,57
654,00	1382,64
655,00	1377,96
656,00	1434,66
657,00	1399,17
658,00	1442,38
659,00	1428,93
660,00	1711,96
661,00	1465,61
662,00	1407,33
663,00	1422,61
664,00	1432,82
665,00	1391,80
666,00	1474,42
667,00	1374,22
668,00	1358,42
669,00	1451,28
670,00	1428,43
671,00	1415,15
672,00	1382,82
673,00	1449,84
674,00	1420,24
675,00	1379,13
676,00	1478,96
677,00	1403,24
678,00	1382,96
679,00	1406,31
680,00	1385,80
681,00	1382,47
682,00	1418,95
683,00	1391,07
684,00	1388,46
685,00	1429,83
686,00	1441,48
687,00	1499,23
688,00	1456,02
689,00	1662,54
690,00	1872,40
691,00	1862,63
692,00	1724,30
693,00	1583,05
694,00	1475,42
695,00	1534,84
696,00	1456,31
697,00	1402,86
698,00	1431,65
699,00	1664,88
700,00	1422,23
701,00	1484,46
702,00	1479,95
703,00	1404,91
704,00	1481,59
705,00	1421,96
706,00	1458,91
707,00	1417,57
708,00	1467,40
709,00	1405,73
710,00	1389,78
711,00	1453,09
712,00	1408,04
713,00	1414,68
714,00	1408,36
715,00	1406,57
716,00	1444,32
717,00	1433,31
718,00	1399,46
719,00	1394,84
720,00	1477,81
721,00	1460,96
722,00	1430,07
723,00	1584,57
724,00	1503,88
725,00	1494,40
726,00	1452,77
727,00	1420,97
728,00	1434,78
729,00	1572,90
730,00	1414,44
731,00	1450,46
732,00	1446,89
733,00	1400,75
734,00	1511,08
735,00	1444,40
736,00	1415,59
737,00	1416,90
738,00	1427,05
739,00	1447,18
740,00	1466,49
741,00	1524,22
742,00	1658,56
743,00	1505,46
744,00	1501,16
745,00	1459,56
746,00	1510,38
747,00	1523,86
748,00	1579,51
749,00	1606,78
750,00	1571,08
751,00	1638,76
752,00	1886,71
753,00	2200,83
754,00	2537,84
755,00	3013,88
756,00	3578,59
757,00	5061,67
758,00	8388,89
759,00	10325,42
760,00	8113,38
761,00	8924,58
762,00	5752,57
763,00	3973,21
764,00	2916,48
765,00	2346,50
766,00	1871,35
767,00	1720,73
768,00	1563,54
769,00	1514,56
770,00	1528,05
771,00	1503,74
772,00	1489,84
773,00	1500,40
774,00	1496,89
775,00	1525,50
776,00	1446,48
777,00	1460,87
778,00	1460,08
779,00	1448,65
780,00	1464,18
781,00	1426,06
782,00	1505,93
783,00	1461,52
784,00	1502,92
785,00	1573,51
786,00	1459,65
787,00	1460,23
788,00	1473,81
789,00	1456,19
790,00	1454,91
791,00	1463,30
792,00	1489,46
793,00	1509,79
794,00	1658,09
795,00	1772,58
796,00	1747,74
797,00	1809,41
798,00	1680,04
799,00	1565,58
800,00	1555,99
801,00	1545,10
802,00	1617,40
803,00	1524,71
804,00	1473,16
805,00	1433,64
806,00	1459,15
807,00	1419,94
808,00	1406,28
809,00	1404,70
810,00	1461,66
811,00	1421,14
812,00	1487,91
813,00	1448,59
814,00	1487,62
815,00	1455,78
816,00	1521,73
817,00	1488,49
818,00	1449,41
819,00	1496,92
820,00	1431,94
821,00	1517,22
822,00	1450,90
823,00	1456,34
824,00	1482,82
825,00	1496,86
826,00	1499,64
827,00	1624,89
828,00	1642,88
829,00	1895,92
830,00	2233,81
831,00	3583,95
832,00	3464,64
833,00	3696,70
834,00	3831,25
835,00	2756,86
836,00	2306,25
837,00	1998,38
838,00	1717,22
839,00	1587,99
840,00	1489,75
841,00	4165,80
842,00	1632,85
843,00	1554,41
844,00	1475,65
845,00	1539,19
846,00	1474,68
847,00	1425,06
848,00	1455,96
849,00	1443,79
850,00	1454,44
851,00	1410,20
852,00	1394,26
853,00	1468,39
854,00	1408,01
855,00	1410,23
856,00	1394,96
857,00	1471,49
858,00	1429,89
859,00	1502,65
860,00	1504,26
861,00	1437,18
862,00	1435,57
863,00	1421,58
864,00	1479,31
865,00	1455,08
866,00	1558,21
867,00	1585,95
868,00	1704,64
869,00	2071,34
870,00	1875,62
871,00	2112,60
872,00	1914,32
873,00	1692,32
874,00	1591,30
875,00	1553,27
876,00	1502,36
877,00	1418,48
878,00	1447,48
879,00	1486,94
880,00	1460,85
881,00	1400,99
882,00	1495,63
883,00	1424,01
884,00	1396,98
885,00	1431,56
886,00	1426,53
887,00	1449,14
888,00	1421,64
889,00	1408,59
890,00	1492,24
891,00	1548,21
892,00	1455,35
893,00	1407,10
894,00	1390,42
895,00	1412,69
896,00	1434,72
897,00	1396,98
898,00	1465,67
899,00	1420,94
900,00	1485,39
901,00	1447,62
902,00	1444,26
903,00	1514,53
904,00	1545,46
905,00	1643,06
906,00	1938,87
907,00	2574,59
908,00	2542,96
909,00	2529,94
910,00	2793,87
911,00	2254,32
912,00	1960,90
913,00	1767,08
914,00	1629,45
915,00	1537,56
916,00	1528,57
917,00	1446,28
918,00	1401,92
919,00	1396,51
920,00	1420,97
921,00	1431,03
922,00	1444,55
923,00	1461,58
924,00	1436,65
925,00	1427,67
926,00	1440,45
927,00	1433,81
928,00	1425,15
929,00	1443,58
930,00	1426,09
931,00	1463,89
932,00	1403,53
933,00	1500,58
934,00	1396,54
935,00	1486,27
936,00	1434,13
937,00	1411,69
938,00	1393,12
939,00	1502,92
940,00	1401,34
941,00	1406,14
942,00	1464,36
943,00	1472,75
944,00	1656,54
945,00	1601,89
946,00	1854,76
947,00	2181,20
948,00	2047,06
949,00	2251,65
950,00	2127,28
951,00	1825,97
952,00	1646,60
953,00	1553,79
954,00	1505,29
955,00	1509,82
956,00	1427,73
957,00	1404,85
958,00	1437,70
959,00	1436,06
960,00	1374,92
961,00	1467,28
962,00	1418,48
963,00	1449,08
964,00	1640,66
965,00	1430,59
966,00	1446,89
967,00	1462,04
968,00	1401,75
969,00	1555,81
970,00	1425,53
971,00	1469,21
972,00	1424,51
973,00	1459,44
974,00	1404,58
975,00	1412,72
976,00	1386,09
977,00	1465,73
978,00	1435,16
979,00	1413,33
980,00	1410,29
981,00	1461,14
982,00	1431,97
983,00	1434,40
984,00	1486,21
985,00	1574,98
986,00	1745,51
987,00	2081,15
988,00	2063,65
989,00	1972,19
990,00	2091,12
991,00	1829,48
992,00	1694,99
993,00	1560,96
994,00	1500,40
995,00	1493,41
996,00	1423,66
997,00	1472,96
998,00	1430,18
999,00	1525,21
1000,00	1386,50
1001,00	1435,54
1002,00	1388,20
1003,00	1384,87
1004,00	1483,99
1005,00	1389,66
1006,00	1399,99
1007,00	1436,88
1008,00	1405,35
1009,00	1399,49
1010,00	1404,20
1011,00	1385,48
1012,00	1462,45
1013,00	1392,77
1014,00	1398,56
1015,00	1438,90
1016,00	1441,83
1017,00	1387,24
1018,00	1459,06
1019,00	1453,44
1020,00	1413,74
1021,00	1410,00
1022,00	1440,45
1023,00	1425,18
1024,00	1505,99
1025,00	1462,10
1026,00	1533,37
1027,00	1645,25
1028,00	2082,93
1029,00	2176,76
1030,00	2031,29
1031,00	2295,42
1032,00	2084,39
1033,00	1864,73
1034,00	1671,03
1035,00	1649,84
1036,00	1544,20
1037,00	1502,51
1038,00	1455,43
1039,00	1400,14
1040,00	1432,93
1041,00	1424,30
1042,00	1468,89
1043,00	1450,02
1044,00	1736,82
1045,00	1460,61
1046,00	1391,51
1047,00	1388,76
1048,00	1440,31
1049,00	1417,14
1050,00	1434,46
1051,00	1417,49
1052,00	1440,39
1053,00	1438,49
1054,00	1385,13
1055,00	1447,33
1056,00	1469,71
1057,00	1412,95
1058,00	1415,03
1059,00	1437,00
1060,00	1404,12
1061,00	1414,77
1062,00	1388,90
1063,00	1361,26
1064,00	1478,43
1065,00	1416,84
1066,00	1391,68
1067,00	1485,66
1068,00	1494,93
1069,00	1559,91
1070,00	1614,33
1071,00	1731,18
1072,00	1627,29
1073,00	1650,90
1074,00	1669,01
1075,00	1682,55
1076,00	1494,11
1077,00	1469,24
1078,00	1458,86
1079,00	1403,56
1080,00	1531,35
1081,00	1474,36
1082,00	1404,70
1083,00	1451,98
1084,00	1413,45
1085,00	1466,08
1086,00	1379,72
1087,00	1452,19
1088,00	1441,39
1089,00	1400,02
1090,00	1397,80
1091,00	1462,28
1092,00	1487,56
1093,00	1572,72
1094,00	1438,11
1095,00	1421,93
1096,00	1408,36
1097,00	1441,27
1098,00	1377,32
1099,00	1469,24
1100,00	1406,69
1101,00	1416,23
1102,00	1409,06
1103,00	1480,10
1104,00	1467,46
1105,00	1528,55
1106,00	1426,50
1107,00	1448,15
1108,00	1447,15
1109,00	1416,02
1110,00	1430,86
1111,00	1598,53
1112,00	1581,27
1113,00	1679,33
1114,00	2036,97
1115,00	2134,86
1116,00	2089,31
1117,00	2288,49
1118,00	2153,03
1119,00	1857,10
1120,00	1760,79
1121,00	1863,04
1122,00	1543,76
1123,00	1467,34
1124,00	1503,44
1125,00	1396,36
1126,00	1433,93
1127,00	1428,43
1128,00	1591,74
1129,00	1407,77
1130,00	1384,25
1131,00	1460,82
1132,00	1414,62
1133,00	1438,35
1134,00	1523,63
1135,00	1455,43
1136,00	1490,75
1137,00	1453,77
1138,00	1409,73
1139,00	1417,05
1140,00	1409,35
1141,00	1397,83
1142,00	1393,99
1143,00	1415,35
1144,00	1478,43
1145,00	1516,90
1146,00	1424,86
1147,00	1464,21
1148,00	1399,58
1149,00	1390,66
1150,00	1419,45
1151,00	1469,13
1152,00	1452,45
1153,00	1424,57
1154,00	1469,89
1155,00	1447,24
1156,00	1504,47
1157,00	1487,50
1158,00	1506,40
1159,00	1466,61
1160,00	1460,79
1161,00	1511,08
1162,00	1529,86
1163,00	1451,28
1164,00	1397,88
1165,00	1499,58
1166,00	1509,53
1167,00	1417,11
1168,00	1438,82
1169,00	1409,76
1170,00	1409,59
1171,00	1484,63
1172,00	1398,27
1173,00	1427,02
1174,00	1415,97
1175,00	1390,01
1176,00	1389,43
1177,00	1446,60
1178,00	1536,01
1179,00	1464,30
1180,00	1417,78
1181,00	1434,84
1182,00	1408,33
1183,00	1440,04
1184,00	1396,25
1185,00	1416,70
1186,00	1446,22
1187,00	1434,31
1188,00	1458,24
1189,00	1381,41
1190,00	1402,65
1191,00	1448,44
1192,00	1494,55
1193,00	1409,88
1194,00	1415,23
1195,00	1439,99
1196,00	1480,27
1197,00	1402,10
1198,00	1497,62
1199,00	1477,40
1200,00	1456,14
1201,00	1433,96
1202,00	1527,02
1203,00	1614,74
1204,00	1814,24
1205,00	2140,24
1206,00	1959,47
1207,00	2116,84
1208,00	2261,37
1209,00	1915,41
1210,00	1728,90
1211,00	1654,20
1212,00	1549,41
1213,00	1476,67
1214,00	1421,14
1215,00	1452,54
1216,00	1391,39
1217,00	1450,31
1218,00	1401,81
1219,00	1403,50
1220,00	1415,76
1221,00	1504,99
1222,00	1463,22
1223,00	1398,24
1224,00	1404,41
1225,00	1391,07
1226,00	1391,62
1227,00	1423,92
1228,00	1395,84
1229,00	1401,48
1230,00	1393,96
1231,00	1405,55
1232,00	1381,76
1233,00	1392,62
1234,00	1419,21
1235,00	1386,86
1236,00	1447,36
1237,00	1419,56
1238,00	1417,11
1239,00	1422,52
1240,00	1363,54
1241,00	1439,49
1242,00	1414,06
1243,00	1457,13
1244,00	1377,49
1245,00	1415,70
1246,00	1450,25
1247,00	1506,60
1248,00	1495,02
1249,00	1471,58
1250,00	1432,14
1251,00	1457,36
1252,00	1434,02
1253,00	1468,92
1254,00	1407,19
1255,00	1438,35
1256,00	1408,71
1257,00	1416,70
1258,00	1385,71
1259,00	1367,66
1260,00	1445,72
1261,00	1410,82
1262,00	1388,55
1263,00	1401,60
1264,00	1434,02
1265,00	1387,21
1266,00	1536,47
1267,00	1407,07
1268,00	1387,00
1269,00	1400,66
1270,00	1446,42
1271,00	1387,67
1272,00	1410,47
1273,00	1436,68
1274,00	1407,22
1275,00	1388,26
1276,00	1535,71
1277,00	1920,61
1278,00	1502,36
1279,00	1440,31
1280,00	1415,44
1281,00	1392,68
1282,00	1392,82
1283,00	1390,07
1284,00	1396,07
1285,00	1558,04
1286,00	1393,03
1287,00	1426,41
1288,00	1419,15
1289,00	1544,58
1290,00	1415,00
1291,00	1388,96
1292,00	1433,46
1293,00	1402,74
1294,00	1394,26
1295,00	1418,77
1296,00	1524,33
1297,00	1469,45
1298,00	1541,65
1299,00	1662,92
1300,00	1932,49
1301,00	1928,46
1302,00	1964,35
1303,00	1996,21
1304,00	2034,07
1305,00	1768,19
1306,00	1618,86
1307,00	1559,62
1308,00	1537,23
1309,00	1447,04
1310,00	1420,24
1311,00	1427,11
1312,00	1411,28
1313,00	1396,48
1314,00	1413,71
1315,00	1501,92
1316,00	1374,16
1317,00	1378,90
1318,00	1416,14
1319,00	1428,37
1320,00	1401,16
1321,00	1450,93
1322,00	1840,98
1323,00	1399,85
1324,00	1387,50
1325,00	1390,66
1326,00	1389,31
1327,00	1366,14
1328,00	1440,04
1329,00	1377,02
1330,00	1406,78
1331,00	1425,77
1332,00	1381,74
1333,00	1401,40
1334,00	1376,67
1335,00	1446,74
1336,00	1443,58
1337,00	1462,07
1338,00	1419,45
1339,00	1376,67
1340,00	1415,18
1341,00	1442,53
1342,00	1427,81
1343,00	1520,32
1344,00	1468,51
1345,00	1394,37
1346,00	1398,06
1347,00	1422,08
1348,00	1435,36
1349,00	1386,27
1350,00	1549,87
1351,00	1517,14
1352,00	1455,84
1353,00	1443,91
1354,00	1661,34
1355,00	1399,70
1356,00	1376,70
1357,00	1371,47
1358,00	1435,04
1359,00	1454,44
1360,00	1406,54
1361,00	1374,66
1362,00	1391,48
1363,00	1399,76
1364,00	1437,29
1365,00	1479,13
1366,00	1381,94
1367,00	1360,85
1368,00	1391,13
1369,00	1394,43
1370,00	1432,00
1371,00	1385,51
1372,00	1368,80
1373,00	1504,67
1374,00	1393,20
1375,00	1415,20
1376,00	1430,39
1377,00	1436,80
1378,00	1478,60
1379,00	1427,32
1380,00	1605,40
1381,00	1395,72
1382,00	1381,97
1383,00	1520,09
1384,00	1398,41
1385,00	1436,59
1386,00	1473,60
1387,00	1481,21
1388,00	1396,71
1389,00	1462,10
1390,00	1381,03
1391,00	1391,59
1392,00	1507,54
1393,00	1449,44
1394,00	1419,48
1395,00	1397,48
1396,00	1484,92
1397,00	1415,29
1398,00	1651,25
1399,00	1888,05
1400,00	1724,45
1401,00	1814,32
1402,00	2045,19
1403,00	1770,21
1404,00	1786,06
1405,00	1714,94
1406,00	1601,95
1407,00	1534,60
1408,00	1497,65
1409,00	1451,31
1410,00	1416,58
1411,00	1936,47
1412,00	1451,60
1413,00	1375,27
1414,00	1364,18
1415,00	1380,77
1416,00	1361,46
1417,00	1365,38
1418,00	1425,74
1419,00	1444,02
1420,00	1374,51
1421,00	1371,79
1422,00	1355,05
1423,00	1350,72
1424,00	1409,82
1425,00	1360,88
1426,00	1426,35
1427,00	1422,64
1428,00	1354,00
1429,00	1401,07
1430,00	1359,38
1431,00	1363,27
1432,00	1420,15
1433,00	1390,40
1434,00	1439,96
1435,00	1415,12
1436,00	1394,34
1437,00	1463,39
1438,00	1385,89
1439,00	1398,82
1440,00	1392,36
1441,00	1381,15
1442,00	1375,91
1443,00	1366,49
1444,00	1395,72
1445,00	1388,79
1446,00	1450,25
1447,00	1416,46
1448,00	1450,49
1449,00	1412,22
1450,00	1411,43
1451,00	1402,36
1452,00	1523,34
1453,00	1465,23
1454,00	1531,82
1455,00	1530,80
1456,00	1466,67
1457,00	1545,84
1458,00	1497,30
1459,00	1418,51
1460,00	1412,45
1461,00	1435,77
1462,00	1409,27
1463,00	1425,47
1464,00	1388,03
1465,00	1404,09
1466,00	1379,28
1467,00	1443,09
1468,00	1386,59
1469,00	1368,92
1470,00	1395,11
1471,00	1430,36
1472,00	1398,97
1473,00	1371,82
1474,00	1398,67
1475,00	1366,05
1476,00	1535,98
1477,00	1447,24
1478,00	1728,34
1479,00	1523,60
1480,00	1415,15
1481,00	1380,56
1482,00	1394,67
1483,00	1383,67
1484,00	1456,57
1485,00	1458,59
1486,00	1385,95
1487,00	1436,80
1488,00	1444,70
1489,00	1427,20
1490,00	1432,20
1491,00	1426,23
1492,00	1394,43
1493,00	1376,94
1494,00	1368,01
1495,00	1426,70
1496,00	1385,19
1497,00	1481,03
1498,00	1464,82
1499,00	1438,84
1500,00	1418,72
1501,00	1419,53
1502,00	1385,74
1503,00	1526,53
1504,00	1420,68
1505,00	1517,49
1506,00	1494,67
1507,00	1524,45
1508,00	1585,57
1509,00	1558,07
1510,00	1571,67
1511,00	1653,47
1512,00	1551,13
1513,00	1496,86
1514,00	1474,07
1515,00	1450,55
1516,00	1838,84
1517,00	1521,11
1518,00	1410,17
1519,00	1407,22
1520,00	1433,87
1521,00	1385,92
1522,00	1421,23
1523,00	1398,21
1524,00	1382,41
1525,00	1370,12
1526,00	1382,61
1527,00	1368,57
1528,00	1409,12
1529,00	1352,33
1530,00	1359,09
1531,00	1384,60
1532,00	1371,20
1533,00	1351,40
1534,00	1391,74
1535,00	1354,06
1536,00	1404,88
1537,00	1444,61
1538,00	1435,13
1539,00	1442,68
1540,00	1427,08
1541,00	1418,34
1542,00	1374,63
1543,00	1390,13
1544,00	1437,91
1545,00	1408,21
1546,00	1392,33
1547,00	1405,67
1548,00	1381,71
1549,00	1374,95
1550,00	1385,10
1551,00	1415,85
1552,00	1391,57
1553,00	1376,38
1554,00	1389,87
1555,00	1378,05
1556,00	1387,47
1557,00	1447,18
1558,00	1414,12
1559,00	1396,77
1560,00	1411,05
1561,00	1433,08
1562,00	1551,66
1563,00	1512,86
1564,00	1487,73
1565,00	1509,76
1566,00	1540,37
1567,00	1563,86
1568,00	1494,37
1569,00	1456,81
1570,00	1443,93
1571,00	1451,92
1572,00	1455,08
1573,00	1416,76
1574,00	1482,70
1575,00	1382,64
1576,00	1362,78
1577,00	1377,64
1578,00	1427,70
1579,00	1388,23
1580,00	1377,38
1581,00	1386,62
1582,00	1363,74
1583,00	1488,46
1584,00	1412,63
1585,00	1358,39
1586,00	1406,72
1587,00	1422,96
1588,00	1450,46
1589,00	1389,52
1590,00	1421,55
1591,00	1398,88
1592,00	1505,05
1593,00	1370,82
1594,00	1398,29
1595,00	1372,40
1596,00	1385,25
1597,00	1371,61
1598,00	1377,90
1599,00	1386,45
1600,00	1349,17
1601,00	1426,79
1602,00	1457,22
1603,00	1413,16
1604,00	1379,37
1605,00	1475,39
1606,00	1372,84
1607,00	1386,97
1608,00	1373,37
1609,00	1391,51
1610,00	1366,49
1611,00	1459,44
1612,00	1376,94
1613,00	1409,88
1614,00	1366,55
1615,00	1384,02
1616,00	1434,08
1617,00	1415,29
1618,00	1450,23
1619,00	1439,72
1620,00	1525,36
1621,00	1500,28
1622,00	1465,82
1623,00	1548,12
1624,00	1534,89
1625,00	1479,10
1626,00	1562,07
1627,00	1438,70
1628,00	1422,49
1629,00	1812,54
1630,00	1442,62
1631,00	1385,54
1632,00	1423,89
1633,00	1387,32
1634,00	1411,72
1635,00	1385,71
1636,00	1390,98
1637,00	1387,29
1638,00	1364,44
1639,00	1367,40
1640,00	1416,02
1641,00	1463,07
1642,00	1464,15
1643,00	1378,84
1644,00	1519,97
1645,00	1427,46
1646,00	1387,29
1647,00	1435,07
1648,00	1402,16
1649,00	1385,80
1650,00	1521,49
1651,00	1456,46
1652,00	1367,37
1653,00	1384,75
1654,00	1390,72
1655,00	1387,91
1656,00	1380,36
1657,00	1476,47
1658,00	1373,60
1659,00	1431,12
1660,00	1433,52
1661,00	1438,32
1662,00	1410,14
1663,00	1436,12
1664,00	1423,10
1665,00	1383,72
1666,00	1409,82
1667,00	1514,85
1668,00	1382,14
1669,00	1389,52
1670,00	1428,96
1671,00	1371,17
1672,00	1369,21
1673,00	1434,28
1674,00	1435,25
1675,00	1430,16
1676,00	1421,64
1677,00	1450,46
1678,00	1511,90
1679,00	1520,44
1680,00	1536,59
1681,00	1548,53
1682,00	1679,28
1683,00	1572,84
1684,00	1582,61
1685,00	1520,88
1686,00	1421,70
1687,00	1414,85
1688,00	1466,93
1689,00	1387,24
1690,00	1388,03
1691,00	1379,98
1692,00	1379,16
1693,00	1479,39
1694,00	1382,23
1695,00	1408,59
1696,00	1404,67
1697,00	1404,47
1698,00	1393,23
1699,00	1410,06
1700,00	1409,09
1701,00	1454,06
1702,00	1383,84
1703,00	1366,29
1704,00	1371,96
1705,00	1423,86
1706,00	1373,51
1707,00	1370,68
1708,00	1373,51
1709,00	1423,63
1710,00	1396,01
1711,00	1366,05
1712,00	1394,64
1713,00	1503,85
1714,00	1422,43
1715,00	1398,97
1716,00	1476,09
1717,00	1400,20
1718,00	1480,36
1719,00	1450,61
1720,00	1389,37
1721,00	1416,08
1722,00	1384,43
1723,00	1436,04
1724,00	1385,68
1725,00	1404,03
1726,00	1405,49
1727,00	1378,43
1728,00	1462,48
1729,00	1365,70
1730,00	1512,86
1731,00	1426,79
1732,00	1525,39
1733,00	1419,51
1734,00	1363,07
1735,00	1400,14
1736,00	1387,91
1737,00	1365,23
1738,00	1393,79
1739,00	1450,37
1740,00	1443,99
1741,00	1549,73
1742,00	1436,77
1743,00	1403,09
1744,00	1395,11
1745,00	1394,32
1746,00	1408,10
1747,00	1411,69
1748,00	1441,01
1749,00	1502,24
1750,00	1437,47
1751,00	1545,84
1752,00	1391,27
1753,00	1361,26
1754,00	1384,40
1755,00	1410,82
1756,00	1389,28
1757,00	1476,21
1758,00	1376,18
1759,00	1371,06
1760,00	1379,07
1761,00	1420,24
1762,00	1399,29
1763,00	1369,21
1764,00	1427,49
1765,00	1379,86
1766,00	1376,62
1767,00	1366,43
1768,00	1380,51
1769,00	1417,28
1770,00	1369,07
1771,00	1383,75
1772,00	1503,85
1773,00	1377,90
1774,00	1353,06
1775,00	1376,09
1776,00	1393,94
1777,00	1354,70
1778,00	1366,73
1779,00	1357,07
1780,00	1358,77
1781,00	1356,46
1782,00	1368,42
1783,00	1411,34
1784,00	1398,67
1785,00	1400,69
1786,00	1422,46
1787,00	1382,93
1788,00	1416,55
1789,00	1419,65
1790,00	1472,02
1791,00	1382,79
1792,00	1411,61
1793,00	1374,74
1794,00	1369,15
1795,00	1375,85
1796,00	1366,90
1797,00	1354,44
1798,00	1385,86
1799,00	1373,37
1800,00	1459,50
1801,00	1447,97
1802,00	1535,19
1803,00	1486,71
1804,00	1510,73
1805,00	1507,77
1806,00	1526,23
1807,00	1503,56
1808,00	1463,10
1809,00	1473,57
1810,00	1489,63
1811,00	1435,80
1812,00	1393,41
1813,00	1390,98
1814,00	1400,78
1815,00	1432,20
1816,00	1557,04
1817,00	1390,37
1818,00	1698,26
1819,00	1473,02
1820,00	1446,16
1821,00	1379,80
1822,00	1350,69
1823,00	1370,59
1824,00	1403,18
1825,00	1496,95
1826,00	1377,49
1827,00	1484,13
1828,00	1520,41
1829,00	1397,12
1830,00	1435,83
1831,00	1374,57
1832,00	1357,25
1833,00	1346,63
1834,00	1373,87
1835,00	1394,78
1836,00	1358,18
1837,00	1354,97
1838,00	1414,47
1839,00	1466,08
1840,00	1538,35
1841,00	1423,22
1842,00	1429,04
1843,00	1440,57
1844,00	1504,17
1845,00	1422,49
1846,00	1366,20
1847,00	1377,55
1848,00	1421,52
1849,00	1400,17
1850,00	1405,17
1851,00	1431,00
1852,00	1374,63
1853,00	1370,85
1854,00	1379,31
1855,00	1372,14
1856,00	1357,34
1857,00	1380,54
1858,00	1499,70
1859,00	1363,33
1860,00	1404,82
1861,00	1636,53
1862,00	1386,62
1863,00	1386,65
1864,00	1361,84
1865,00	1397,07
1866,00	1431,79
1867,00	1369,56
1868,00	1402,86
1869,00	1359,21
1870,00	1386,65
1871,00	1364,27
1872,00	1398,24
1873,00	1397,74
1874,00	1419,65
1875,00	1383,20
1876,00	1358,86
1877,00	1389,63
1878,00	1461,96
1879,00	1434,40
1880,00	1353,80
1881,00	1404,15
1882,00	1380,65
1883,00	1381,15
1884,00	1370,12
1885,00	1396,39
1886,00	1405,78
1887,00	1360,29
1888,00	1367,78
1889,00	1407,45
1890,00	1353,09
1891,00	1424,80
1892,00	1465,18
1893,00	1387,26
1894,00	1438,49
1895,00	1408,36
1896,00	1448,47
1897,00	1553,21
1898,00	1385,83
1899,00	1401,92
1900,00	1380,45
1901,00	1402,60
1902,00	1393,67
1903,00	1485,60
1904,00	1411,43
1905,00	1657,57
1906,00	1386,47
1907,00	1367,05
1908,00	1646,25
1909,00	1388,17
1910,00	1379,69
1911,00	1397,18
1912,00	1410,73
1913,00	1485,22
1914,00	1375,42
1915,00	1388,49
1916,00	1423,43
1917,00	1408,91
1918,00	1401,40
1919,00	1400,34
1920,00	1369,07
1921,00	1458,27
1922,00	1394,49
1923,00	1396,63
1924,00	1418,72
1925,00	1371,00
1926,00	1398,94
1927,00	1441,01
1928,00	1465,23
1929,00	1423,72
1930,00	1371,14
1931,00	1434,60
1932,00	1561,99
1933,00	1425,33
1934,00	1410,76
1935,00	1421,64
1936,00	1444,90
1937,00	1411,49
1938,00	1447,42
1939,00	1440,80
1940,00	1569,01
1941,00	1416,81
1942,00	1415,56
1943,00	1404,79
1944,00	1423,66
1945,00	1389,22
1946,00	1358,71
1947,00	1351,81
1948,00	1520,35
1949,00	1367,43
1950,00	1421,41
1951,00	1369,18
1952,00	1376,62
1953,00	1353,71
1954,00	1426,76
1955,00	1383,34
1956,00	1383,49
1957,00	1406,78
1958,00	1353,21
1959,00	1384,34
1960,00	1357,16
1961,00	1441,77
1962,00	1354,94
1963,00	1416,08
1964,00	1359,03
1965,00	1411,55
1966,00	1368,28
1967,00	1440,45
1968,00	1370,27
1969,00	1359,30
1970,00	1402,57
1971,00	1440,16
1972,00	1399,76
1973,00	1410,82
1974,00	1413,22
1975,00	1427,26
1976,00	1412,51
1977,00	1408,94
1978,00	1396,39
1979,00	1400,08
1980,00	1670,97
1981,00	1405,49
1982,00	1358,77
1983,00	1389,11
1984,00	1387,79
1985,00	1475,47
1986,00	1359,91
1987,00	1364,12
1988,00	1375,80
1989,00	1399,11
1990,00	1487,53
1991,00	1420,76
1992,00	1432,82
1993,00	1566,99
1994,00	1419,04
1995,00	1353,50
1996,00	1405,93
1997,00	1397,39
1998,00	1411,40
1999,00	1355,78
2000,00	1352,62
2001,00	1387,56
2002,00	1460,73
2003,00	1355,35
2004,00	1419,45
2005,00	1358,30
2006,00	1491,30
2007,00	1380,48
2008,00	1351,86
2009,00	1477,20
2010,00	1368,63
2011,00	1352,86
2012,00	1379,28
2013,00	1370,24
2014,00	1386,65
2015,00	1355,76
2016,00	1362,57
2017,00	1381,33
2018,00	1386,62
2019,00	1355,99
2020,00	1352,57
2021,00	1407,66
2022,00	1396,19
2023,00	1382,53
2024,00	1372,52
2025,00	1453,21
2026,00	1371,55
2027,00	1362,34
2028,00	1419,10
2029,00	1360,90
2030,00	1355,73
2031,00	1359,88
2032,00	1347,45
2033,00	1389,87
2034,00	1468,72
2035,00	1407,72
2036,00	1396,89
2037,00	1372,81
2038,00	1374,63
2039,00	1384,89
2040,00	1407,89
2041,00	1393,58
2042,00	1358,27
2043,00	1385,71
2044,00	1422,67
2045,00	1365,88
2046,00	1365,88
2047,00	1365,88
>>>>>End Processed Spectral Data<<<<<
