SpectraSuite Datei
++++++++++++++++++++++++++++++++++++
Datum: Thu Sep 19 15:52:09 CEST 2024
Benutzer: Student
Dark-Spektrum vorhanden: Nein
Referenz-Spektrum vorhanden: Nein
Zahl der probierten Teilspektren: 1
Spektrometer: USB2+H15728
Integrationszeit (usec): 500000 (USB2+H15728)
Spektren Durchschnitt berechnet: 20 (USB2+H15728)
Boxcar Glättung: 0 (USB2+H15728)
Dunkelstromkorrektur: Nein (USB2+H15728)
Puls/Lampe aktiviert: Nein (USB2+H15728)
Correct for Detector Non-linearity: Nein (USB2+H15728)
Streulichtkorrektur: Nein (USB2+H15728)
Anzahl Pixel in verarbeitetem Spektrum: 2048
>>>>>Begin Processed Spectral Data<<<<<
0,00	983,61
1,00	983,61
2,00	983,61
3,00	952,48
4,00	1006,08
5,00	1012,28
6,00	1017,31
7,00	1013,57
8,00	1078,40
9,00	1053,83
10,00	1070,21
11,00	1106,02
12,00	1066,70
13,00	1223,63
14,00	1107,54
15,00	1137,38
16,00	1153,42
17,00	1223,28
18,00	1185,72
19,00	1262,84
20,00	1208,54
21,00	1211,34
22,00	1243,18
23,00	1296,31
24,00	1265,29
25,00	1302,98
26,00	1315,85
27,00	1360,32
28,00	1331,30
29,00	1339,49
30,00	1346,28
31,00	1360,09
32,00	1447,39
33,00	1364,65
34,00	1390,51
35,00	1394,73
36,00	1383,26
37,00	1354,00
38,00	1382,79
39,00	1457,57
40,00	1366,05
41,00	1431,47
42,00	1381,27
43,00	1404,44
44,00	1368,86
45,00	1365,82
46,00	1339,37
47,00	1406,08
48,00	1366,52
49,00	1443,99
50,00	1372,84
51,00	1388,41
52,00	1357,28
53,00	1449,49
54,00	1356,57
55,00	1360,09
56,00	1431,00
57,00	1369,10
58,00	1355,99
59,00	1359,38
60,00	1322,75
61,00	1362,78
62,00	1349,44
63,00	1341,24
64,00	1345,81
65,00	1319,36
66,00	1343,94
67,00	1332,00
68,00	1325,80
69,00	1338,32
70,00	1579,51
71,00	1364,42
72,00	1333,64
73,00	1343,23
74,00	1336,91
75,00	1327,55
76,00	1321,35
77,00	1367,69
78,00	1327,08
79,00	1329,42
80,00	1334,46
81,00	1305,55
82,00	1362,66
83,00	1324,74
84,00	1450,31
85,00	1356,22
86,00	1462,95
87,00	1434,75
88,00	1314,68
89,00	1310,58
90,00	1343,23
91,00	1411,46
92,00	1368,04
93,00	1367,34
94,00	1334,57
95,00	1321,23
96,00	1340,54
97,00	1570,03
98,00	1355,05
99,00	1321,35
100,00	1366,52
101,00	1373,08
102,00	1353,41
103,00	1334,46
104,00	1346,74
105,00	1385,71
106,00	1370,62
107,00	1383,96
108,00	1376,70
109,00	1347,45
110,00	1437,91
111,00	1402,68
112,00	1351,31
113,00	1380,33
114,00	1350,37
115,00	1347,68
116,00	1358,10
117,00	1347,45
118,00	1353,30
119,00	1455,93
120,00	1348,97
121,00	1322,05
122,00	1360,79
123,00	1350,61
124,00	1345,81
125,00	1340,66
126,00	1361,72
127,00	1361,96
128,00	1348,03
129,00	1381,27
130,00	1352,60
131,00	1383,96
132,00	1338,20
133,00	1399,41
134,00	1358,21
135,00	1334,92
136,00	1337,38
137,00	1397,18
138,00	1463,19
139,00	1376,35
140,00	1367,81
141,00	1416,84
142,00	1367,93
143,00	1336,91
144,00	1361,14
145,00	1350,72
146,00	1355,76
147,00	1414,74
148,00	1587,00
149,00	1397,53
150,00	1329,54
151,00	1381,50
152,00	1354,94
153,00	1362,54
154,00	1349,67
155,00	1345,81
156,00	1383,02
157,00	1351,43
158,00	1382,91
159,00	1401,40
160,00	1392,74
161,00	1405,84
162,00	1333,99
163,00	1339,02
164,00	1356,93
165,00	1335,98
166,00	1346,39
167,00	1384,43
168,00	1335,28
169,00	1335,63
170,00	1350,72
171,00	1319,59
172,00	1403,50
173,00	1329,54
174,00	1348,50
175,00	1357,28
176,00	1357,74
177,00	1362,78
178,00	1369,56
179,00	1350,37
180,00	1371,44
181,00	1347,56
182,00	1336,21
183,00	1455,58
184,00	1345,46
185,00	1335,86
186,00	1331,53
187,00	1369,10
188,00	1406,78
189,00	1360,44
190,00	1328,02
191,00	1333,64
192,00	1376,59
193,00	1324,74
194,00	1359,97
195,00	1385,83
196,00	1402,10
197,00	1367,69
198,00	1453,47
199,00	1342,30
200,00	1323,92
201,00	1394,49
202,00	1374,36
203,00	1357,74
204,00	1357,86
205,00	1390,16
206,00	1353,65
207,00	1354,47
208,00	1364,65
209,00	1367,11
210,00	1396,71
211,00	1384,08
212,00	1339,25
213,00	1372,61
214,00	1378,58
215,00	1366,64
216,00	1369,92
217,00	1372,37
218,00	1413,33
219,00	1357,16
220,00	1437,32
221,00	1381,62
222,00	1391,68
223,00	1354,35
224,00	1370,62
225,00	1314,21
226,00	1387,00
227,00	1352,71
228,00	1366,64
229,00	1374,36
230,00	1367,34
231,00	1392,50
232,00	1373,54
233,00	1360,90
234,00	1382,91
235,00	1375,42
236,00	1439,31
237,00	1368,04
238,00	1352,24
239,00	1349,55
240,00	1371,79
241,00	1399,06
242,00	1354,70
243,00	1409,94
244,00	1366,52
245,00	1337,27
246,00	1348,15
247,00	1369,56
248,00	1390,98
249,00	1390,75
250,00	1402,92
251,00	1364,06
252,00	1394,14
253,00	1376,59
254,00	1387,00
255,00	1349,90
256,00	1386,07
257,00	1365,23
258,00	1355,52
259,00	1375,53
260,00	1342,53
261,00	1359,27
262,00	1334,57
263,00	1333,87
264,00	1382,91
265,00	1367,81
266,00	1352,01
267,00	1344,99
268,00	1384,19
269,00	1371,91
270,00	1373,78
271,00	1416,84
272,00	1379,98
273,00	1367,58
274,00	1352,60
275,00	1370,62
276,00	1336,56
277,00	1372,02
278,00	1372,26
279,00	1391,45
280,00	1342,53
281,00	1373,66
282,00	1342,77
283,00	1380,56
284,00	1371,32
285,00	1381,74
286,00	1388,64
287,00	1373,31
288,00	1346,04
289,00	1358,56
290,00	1406,19
291,00	1364,77
292,00	1392,74
293,00	1359,15
294,00	1387,47
295,00	1361,72
296,00	1348,85
297,00	1353,30
298,00	1379,16
299,00	1369,92
300,00	1378,58
301,00	1380,80
302,00	1356,57
303,00	1401,51
304,00	1355,40
305,00	1391,92
306,00	1356,11
307,00	1360,90
308,00	1372,61
309,00	1361,96
310,00	1362,78
311,00	1345,11
312,00	1382,55
313,00	1424,68
314,00	1394,02
315,00	1351,54
316,00	1360,32
317,00	1334,69
318,00	1355,76
319,00	1376,70
320,00	1350,02
321,00	1351,07
322,00	1359,27
323,00	1408,42
324,00	1358,10
325,00	1397,42
326,00	1343,47
327,00	1366,52
328,00	1376,35
329,00	1389,11
330,00	1366,99
331,00	1355,05
332,00	1368,75
333,00	1381,62
334,00	1370,50
335,00	1366,99
336,00	1369,10
337,00	1357,74
338,00	1386,65
339,00	1343,58
340,00	1353,30
341,00	1360,09
342,00	1348,03
343,00	1423,63
344,00	1465,64
345,00	1357,39
346,00	1343,70
347,00	1395,43
348,00	1332,82
349,00	1419,18
350,00	1373,78
351,00	1335,63
352,00	1459,21
353,00	1387,47
354,00	1345,93
355,00	1349,79
356,00	1353,41
357,00	1416,96
358,00	1350,96
359,00	1357,39
360,00	1374,60
361,00	1366,76
362,00	1404,56
363,00	1391,92
364,00	1421,52
365,00	1370,62
366,00	1371,91
367,00	1349,79
368,00	1343,70
369,00	1352,83
370,00	1344,52
371,00	1359,03
372,00	1420,59
373,00	1359,62
374,00	1358,80
375,00	1367,69
376,00	1350,26
377,00	1667,98
378,00	1374,60
379,00	1343,82
380,00	1342,65
381,00	1463,30
382,00	1397,65
383,00	1361,72
384,00	1352,71
385,00	1354,70
386,00	1362,43
387,00	1385,25
388,00	1366,05
389,00	1422,81
390,00	1378,58
391,00	1365,12
392,00	1346,74
393,00	1365,00
394,00	1351,43
395,00	1367,46
396,00	1394,49
397,00	1357,74
398,00	1381,50
399,00	1362,54
400,00	1384,08
401,00	1363,25
402,00	1354,23
403,00	1357,51
404,00	1367,22
405,00	1389,34
406,00	1348,38
407,00	1400,11
408,00	1365,70
409,00	1404,44
410,00	1380,10
411,00	1355,76
412,00	1339,14
413,00	1341,71
414,00	1441,18
415,00	1381,15
416,00	1418,48
417,00	1369,56
418,00	1352,71
419,00	1354,70
420,00	1388,17
421,00	1361,49
422,00	1381,38
423,00	1361,84
424,00	1340,31
425,00	1357,63
426,00	1337,03
427,00	1364,88
428,00	1371,09
429,00	1349,20
430,00	1355,87
431,00	1347,68
432,00	1364,42
433,00	1341,48
434,00	1394,73
435,00	1373,19
436,00	1421,41
437,00	1375,42
438,00	1370,62
439,00	1354,94
440,00	1364,77
441,00	1359,62
442,00	1405,49
443,00	1348,03
444,00	1359,62
445,00	1355,52
446,00	1393,09
447,00	1369,56
448,00	1421,06
449,00	1353,65
450,00	1330,01
451,00	1427,96
452,00	1423,16
453,00	1351,43
454,00	1400,81
455,00	1355,87
456,00	1377,52
457,00	1533,99
458,00	1368,04
459,00	1367,22
460,00	1342,77
461,00	1346,63
462,00	1348,50
463,00	1368,63
464,00	1362,07
465,00	1345,57
466,00	1370,62
467,00	1352,36
468,00	1352,13
469,00	1389,58
470,00	1413,92
471,00	1353,41
472,00	1412,63
473,00	1343,82
474,00	1360,20
475,00	1368,51
476,00	1354,23
477,00	1364,53
478,00	1396,25
479,00	1365,35
480,00	1380,10
481,00	1343,12
482,00	1359,27
483,00	1420,24
484,00	1345,11
485,00	1415,91
486,00	1347,68
487,00	1352,36
488,00	1390,40
489,00	1350,49
490,00	1381,38
491,00	1373,08
492,00	1368,51
493,00	1358,56
494,00	1379,51
495,00	1414,27
496,00	1379,16
497,00	1351,19
498,00	1367,69
499,00	1333,29
500,00	1329,42
501,00	1354,59
502,00	1395,66
503,00	1363,01
504,00	1375,42
505,00	1385,83
506,00	1411,93
507,00	1415,79
508,00	1404,09
509,00	1339,02
510,00	1351,19
511,00	1382,55
512,00	1375,06
513,00	1412,63
514,00	1489,40
515,00	1353,18
516,00	1357,63
517,00	1362,19
518,00	1356,46
519,00	1436,15
520,00	1419,18
521,00	1343,94
522,00	1385,25
523,00	1465,18
524,00	1388,76
525,00	1345,34
526,00	1359,62
527,00	1366,87
528,00	1384,31
529,00	1378,93
530,00	1368,86
531,00	1376,59
532,00	1335,63
533,00	1390,51
534,00	1363,95
535,00	1374,95
536,00	1392,03
537,00	1391,21
538,00	1417,55
539,00	1389,69
540,00	1347,68
541,00	1386,30
542,00	1358,45
543,00	1381,97
544,00	1402,45
545,00	1363,48
546,00	1343,58
547,00	1389,58
548,00	1365,94
549,00	1339,02
550,00	1364,18
551,00	1366,76
552,00	1468,57
553,00	1397,07
554,00	1391,92
555,00	1400,69
556,00	1353,18
557,00	1385,01
558,00	1350,96
559,00	1359,62
560,00	1424,80
561,00	1421,64
562,00	1402,92
563,00	1371,32
564,00	1375,53
565,00	1386,65
566,00	1364,06
567,00	1395,43
568,00	1382,67
569,00	1365,94
570,00	1381,15
571,00	1378,11
572,00	1341,95
573,00	1368,98
574,00	1359,85
575,00	1390,40
576,00	1398,94
577,00	1374,83
578,00	1346,28
579,00	1343,58
580,00	1366,40
581,00	1377,64
582,00	1354,12
583,00	1357,28
584,00	1354,12
585,00	1400,11
586,00	1346,63
587,00	1362,31
588,00	1353,06
589,00	1365,23
590,00	1401,86
591,00	1348,38
592,00	1359,03
593,00	1374,83
594,00	1372,72
595,00	1363,01
596,00	1381,03
597,00	1365,70
598,00	1340,19
599,00	1392,62
600,00	1385,36
601,00	2945,92
602,00	1477,93
603,00	1375,30
604,00	1373,78
605,00	1377,17
606,00	1374,71
607,00	1375,42
608,00	1373,78
609,00	1377,99
610,00	1365,00
611,00	1342,53
612,00	1388,05
613,00	1349,90
614,00	1398,70
615,00	1364,65
616,00	1377,76
617,00	1406,90
618,00	1396,95
619,00	1346,98
620,00	1362,07
621,00	1375,30
622,00	1351,19
623,00	1382,67
624,00	1335,98
625,00	1458,15
626,00	1344,99
627,00	1397,53
628,00	1361,84
629,00	1400,58
630,00	1350,72
631,00	1351,66
632,00	1392,85
633,00	1335,04
634,00	1371,32
635,00	1418,83
636,00	1367,11
637,00	1358,45
638,00	1346,04
639,00	1373,31
640,00	1388,99
641,00	1367,69
642,00	1382,91
643,00	1359,85
644,00	1356,11
645,00	1364,42
646,00	1342,30
647,00	1363,60
648,00	1346,16
649,00	1368,28
650,00	1365,00
651,00	1364,42
652,00	1379,75
653,00	1353,41
654,00	1360,79
655,00	1351,78
656,00	1403,97
657,00	1376,70
658,00	1399,29
659,00	1395,08
660,00	1558,56
661,00	1407,48
662,00	1378,93
663,00	1403,15
664,00	1391,21
665,00	1364,53
666,00	1424,57
667,00	1365,12
668,00	1347,91
669,00	1399,29
670,00	1396,48
671,00	1379,04
672,00	1353,18
673,00	1391,92
674,00	1375,88
675,00	1351,31
676,00	1414,39
677,00	1383,26
678,00	1368,51
679,00	1369,80
680,00	1363,60
681,00	1358,92
682,00	1372,49
683,00	1357,74
684,00	1349,67
685,00	1374,25
686,00	1388,52
687,00	1409,35
688,00	1350,37
689,00	1428,43
690,00	1439,90
691,00	1383,84
692,00	1363,01
693,00	1369,80
694,00	1343,12
695,00	1422,11
696,00	1377,05
697,00	1346,98
698,00	1389,11
699,00	1528,84
700,00	1379,28
701,00	1425,74
702,00	1422,81
703,00	1374,25
704,00	1421,29
705,00	1371,32
706,00	1402,21
707,00	1389,58
708,00	1399,87
709,00	1363,13
710,00	1373,31
711,00	1385,13
712,00	1373,66
713,00	1360,55
714,00	1378,46
715,00	1367,34
716,00	1393,91
717,00	1398,82
718,00	1367,81
719,00	1346,86
720,00	1405,49
721,00	1400,69
722,00	1394,37
723,00	1481,91
724,00	1437,44
725,00	1408,18
726,00	1388,64
727,00	1372,49
728,00	1383,14
729,00	1476,18
730,00	1383,49
731,00	1392,74
732,00	1407,25
733,00	1367,22
734,00	1442,24
735,00	1394,02
736,00	1396,13
737,00	1391,68
738,00	1383,84
739,00	1400,46
740,00	1411,34
741,00	1440,25
742,00	1525,56
743,00	1415,91
744,00	1427,14
745,00	1395,54
746,00	1427,84
747,00	1434,16
748,00	1472,31
749,00	1533,05
750,00	1540,07
751,00	1622,46
752,00	1807,13
753,00	2120,99
754,00	2612,74
755,00	3597,64
756,00	5096,17
757,00	7177,14
758,00	8486,20
759,00	6109,03
760,00	4234,50
761,00	3164,29
762,00	2431,70
763,00	1983,84
764,00	1664,00
765,00	1585,60
766,00	1491,74
767,00	1496,07
768,00	1436,85
769,00	1432,88
770,00	1455,81
771,00	1423,98
772,00	1427,02
773,00	1420,47
774,00	1434,28
775,00	1446,92
776,00	1386,18
777,00	1405,73
778,00	1417,55
779,00	1399,76
780,00	1397,65
781,00	1384,43
782,00	1446,92
783,00	1404,20
784,00	1431,82
785,00	1470,79
786,00	1414,50
787,00	1416,26
788,00	1429,25
789,00	1426,44
790,00	1434,28
791,00	1462,25
792,00	1544,64
793,00	1628,31
794,00	1672,90
795,00	1565,12
796,00	1503,79
797,00	1464,47
798,00	1453,59
799,00	1413,10
800,00	1426,32
801,00	1428,78
802,00	1495,72
803,00	1439,66
804,00	1416,73
805,00	1391,45
806,00	1402,45
807,00	1372,37
808,00	1367,58
809,00	1371,44
810,00	1388,17
811,00	1374,60
812,00	1421,41
813,00	1403,85
814,00	1420,82
815,00	1390,63
816,00	1438,38
817,00	1420,12
818,00	1391,80
819,00	1418,83
820,00	1373,08
821,00	1448,56
822,00	1389,81
823,00	1423,63
824,00	1458,62
825,00	1485,77
826,00	1526,85
827,00	1704,96
828,00	1942,41
829,00	2510,11
830,00	2848,20
831,00	2867,86
832,00	2225,73
833,00	1950,95
834,00	1781,03
835,00	1599,17
836,00	1532,82
837,00	1455,58
838,00	1396,36
839,00	1412,05
840,00	1383,72
841,00	2710,81
842,00	1480,97
843,00	1461,90
844,00	1419,65
845,00	1454,88
846,00	1410,99
847,00	1385,95
848,00	1398,12
849,00	1388,41
850,00	1393,55
851,00	1373,78
852,00	1355,05
853,00	1403,85
854,00	1364,30
855,00	1378,69
856,00	1364,42
857,00	1411,69
858,00	1390,16
859,00	1443,53
860,00	1433,70
861,00	1405,49
862,00	1409,82
863,00	1403,62
864,00	1460,85
865,00	1466,46
866,00	1608,53
867,00	1807,01
868,00	1814,03
869,00	1785,83
870,00	1598,35
871,00	1549,32
872,00	1489,05
873,00	1426,44
874,00	1395,66
875,00	1417,55
876,00	1386,42
877,00	1359,38
878,00	1391,33
879,00	1430,07
880,00	1399,41
881,00	1375,77
882,00	1430,54
883,00	1372,49
884,00	1368,75
885,00	1381,27
886,00	1380,80
887,00	1394,02
888,00	1370,85
889,00	1366,29
890,00	1420,47
891,00	1444,58
892,00	1392,27
893,00	1369,56
894,00	1345,34
895,00	1366,05
896,00	1371,67
897,00	1373,89
898,00	1399,29
899,00	1388,52
900,00	1433,11
901,00	1433,34
902,00	1450,20
903,00	1573,19
904,00	1650,43
905,00	1874,65
906,00	2164,64
907,00	2186,06
908,00	1886,94
909,00	1706,37
910,00	1609,12
911,00	1528,60
912,00	1486,01
913,00	1422,11
914,00	1407,95
915,00	1404,56
916,00	1433,58
917,00	1372,37
918,00	1366,64
919,00	1371,67
920,00	1377,64
921,00	1391,92
922,00	1394,26
923,00	1416,14
924,00	1387,00
925,00	1392,03
926,00	1390,04
927,00	1389,58
928,00	1388,17
929,00	1398,59
930,00	1387,82
931,00	1413,22
932,00	1355,17
933,00	1428,08
934,00	1372,02
935,00	1426,56
936,00	1397,07
937,00	1374,95
938,00	1374,83
939,00	1449,61
940,00	1387,00
941,00	1403,27
942,00	1454,88
943,00	1517,25
944,00	1708,59
945,00	1898,29
946,00	1948,38
947,00	1889,87
948,00	1697,24
949,00	1605,61
950,00	1554,58
951,00	1469,51
952,00	1417,78
953,00	1378,46
954,00	1381,38
955,00	1413,80
956,00	1384,43
957,00	1360,55
958,00	1387,00
959,00	1405,37
960,00	1350,02
961,00	1411,46
962,00	1363,60
963,00	1401,63
964,00	1522,64
965,00	1388,64
966,00	1397,65
967,00	1409,59
968,00	1379,16
969,00	1474,77
970,00	1395,43
971,00	1412,28
972,00	1389,46
973,00	1406,54
974,00	1370,15
975,00	1384,19
976,00	1371,55
977,00	1405,26
978,00	1391,92
979,00	1388,99
980,00	1389,34
981,00	1442,12
982,00	1429,13
983,00	1481,91
984,00	1513,04
985,00	1622,23
986,00	1741,71
987,00	1774,48
988,00	1686,36
989,00	1521,82
990,00	1482,85
991,00	1456,98
992,00	1439,08
993,00	1381,97
994,00	1380,68
995,00	1385,48
996,00	1361,61
997,00	1406,31
998,00	1390,28
999,00	1447,86
1000,00	1355,76
1001,00	1404,20
1002,00	1370,85
1003,00	1348,03
1004,00	1399,87
1005,00	1363,83
1006,00	1361,96
1007,00	1383,26
1008,00	1371,55
1009,00	1349,67
1010,00	1368,04
1011,00	1352,95
1012,00	1409,24
1013,00	1356,69
1014,00	1364,77
1015,00	1385,25
1016,00	1391,57
1017,00	1361,96
1018,00	1407,13
1019,00	1389,81
1020,00	1391,80
1021,00	1384,78
1022,00	1418,25
1023,00	1430,42
1024,00	1519,48
1025,00	1506,95
1026,00	1666,23
1027,00	1928,13
1028,00	2000,46
1029,00	1870,91
1030,00	1683,90
1031,00	1574,60
1032,00	1502,16
1033,00	1479,80
1034,00	1414,03
1035,00	1438,26
1036,00	1413,68
1037,00	1400,58
1038,00	1378,46
1039,00	1361,26
1040,00	1380,45
1041,00	1364,18
1042,00	1405,49
1043,00	1383,26
1044,00	1578,11
1045,00	1407,13
1046,00	1370,62
1047,00	1370,15
1048,00	1385,36
1049,00	1383,37
1050,00	1379,98
1051,00	1376,35
1052,00	1394,61
1053,00	1392,15
1054,00	1364,53
1055,00	1405,84
1056,00	1424,10
1057,00	1372,61
1058,00	1371,55
1059,00	1389,81
1060,00	1376,00
1061,00	1365,23
1062,00	1357,28
1063,00	1357,04
1064,00	1424,22
1065,00	1390,40
1066,00	1392,50
1067,00	1427,38
1068,00	1441,30
1069,00	1500,75
1070,00	1525,09
1071,00	1525,21
1072,00	1460,61
1073,00	1442,24
1074,00	1401,40
1075,00	1470,44
1076,00	1381,15
1077,00	1372,61
1078,00	1375,42
1079,00	1355,52
1080,00	1445,05
1081,00	1410,99
1082,00	1356,93
1083,00	1389,46
1084,00	1372,26
1085,00	1412,28
1086,00	1365,59
1087,00	1409,94
1088,00	1391,92
1089,00	1372,61
1090,00	1363,13
1091,00	1411,93
1092,00	1421,99
1093,00	1466,23
1094,00	1384,89
1095,00	1381,97
1096,00	1370,15
1097,00	1406,54
1098,00	1348,85
1099,00	1420,94
1100,00	1364,18
1101,00	1377,52
1102,00	1376,59
1103,00	1411,93
1104,00	1410,64
1105,00	1441,30
1106,00	1396,36
1107,00	1402,92
1108,00	1426,32
1109,00	1450,20
1110,00	1500,52
1111,00	1616,14
1112,00	1683,78
1113,00	1888,93
1114,00	1910,11
1115,00	1861,08
1116,00	1711,40
1117,00	1584,43
1118,00	1530,13
1119,00	1482,03
1120,00	1472,78
1121,00	1570,27
1122,00	1405,02
1123,00	1389,58
1124,00	1427,84
1125,00	1363,13
1126,00	1378,58
1127,00	1394,84
1128,00	1487,64
1129,00	1373,43
1130,00	1364,30
1131,00	1398,35
1132,00	1393,09
1133,00	1394,37
1134,00	1448,09
1135,00	1396,71
1136,00	1419,89
1137,00	1407,25
1138,00	1374,25
1139,00	1383,72
1140,00	1365,35
1141,00	1377,05
1142,00	1363,95
1143,00	1379,98
1144,00	1421,88
1145,00	1444,81
1146,00	1393,09
1147,00	1404,44
1148,00	1362,78
1149,00	1354,59
1150,00	1374,83
1151,00	1418,13
1152,00	1395,08
1153,00	1392,38
1154,00	1407,72
1155,00	1374,48
1156,00	1405,02
1157,00	1399,87
1158,00	1416,26
1159,00	1398,94
1160,00	1384,54
1161,00	1397,88
1162,00	1422,46
1163,00	1383,49
1164,00	1356,93
1165,00	1417,19
1166,00	1403,50
1167,00	1367,11
1168,00	1394,84
1169,00	1375,53
1170,00	1383,84
1171,00	1430,07
1172,00	1364,06
1173,00	1382,44
1174,00	1372,14
1175,00	1351,31
1176,00	1373,08
1177,00	1395,90
1178,00	1447,27
1179,00	1382,79
1180,00	1385,71
1181,00	1385,60
1182,00	1387,82
1183,00	1396,60
1184,00	1378,46
1185,00	1361,84
1186,00	1398,35
1187,00	1393,91
1188,00	1396,01
1189,00	1362,31
1190,00	1365,70
1191,00	1401,28
1192,00	1422,34
1193,00	1384,43
1194,00	1383,96
1195,00	1412,51
1196,00	1423,05
1197,00	1380,45
1198,00	1452,65
1199,00	1484,60
1200,00	1467,28
1201,00	1469,39
1202,00	1569,68
1203,00	1744,17
1204,00	1809,35
1205,00	1871,61
1206,00	1736,79
1207,00	1655,93
1208,00	1579,74
1209,00	1478,87
1210,00	1433,46
1211,00	1444,11
1212,00	1395,54
1213,00	1372,49
1214,00	1353,88
1215,00	1377,41
1216,00	1362,54
1217,00	1400,93
1218,00	1371,09
1219,00	1377,76
1220,00	1377,76
1221,00	1440,25
1222,00	1405,84
1223,00	1366,52
1224,00	1384,19
1225,00	1363,95
1226,00	1373,31
1227,00	1392,27
1228,00	1371,20
1229,00	1377,99
1230,00	1363,83
1231,00	1367,22
1232,00	1356,22
1233,00	1353,77
1234,00	1375,88
1235,00	1360,55
1236,00	1400,93
1237,00	1380,33
1238,00	1380,45
1239,00	1376,47
1240,00	1353,88
1241,00	1393,67
1242,00	1368,51
1243,00	1404,67
1244,00	1334,69
1245,00	1379,28
1246,00	1388,17
1247,00	1418,25
1248,00	1400,46
1249,00	1390,28
1250,00	1395,19
1251,00	1411,58
1252,00	1386,65
1253,00	1420,82
1254,00	1365,82
1255,00	1372,37
1256,00	1375,77
1257,00	1376,94
1258,00	1378,69
1259,00	1355,99
1260,00	1411,23
1261,00	1366,64
1262,00	1371,44
1263,00	1370,27
1264,00	1393,55
1265,00	1365,12
1266,00	1468,22
1267,00	1379,75
1268,00	1355,76
1269,00	1359,97
1270,00	1406,66
1271,00	1349,67
1272,00	1373,89
1273,00	1395,31
1274,00	1372,84
1275,00	1349,79
1276,00	1456,52
1277,00	1685,65
1278,00	1419,07
1279,00	1380,33
1280,00	1376,70
1281,00	1348,27
1282,00	1357,98
1283,00	1367,11
1284,00	1373,78
1285,00	1465,06
1286,00	1370,85
1287,00	1379,63
1288,00	1385,48
1289,00	1461,20
1290,00	1401,51
1291,00	1375,77
1292,00	1386,42
1293,00	1400,93
1294,00	1411,69
1295,00	1432,88
1296,00	1492,44
1297,00	1510,11
1298,00	1590,04
1299,00	1651,72
1300,00	1723,34
1301,00	1720,41
1302,00	1665,53
1303,00	1532,47
1304,00	1541,59
1305,00	1454,88
1306,00	1422,11
1307,00	1411,23
1308,00	1407,36
1309,00	1388,17
1310,00	1374,48
1311,00	1371,91
1312,00	1379,39
1313,00	1366,64
1314,00	1387,35
1315,00	1437,32
1316,00	1348,38
1317,00	1360,44
1318,00	1383,96
1319,00	1385,36
1320,00	1370,73
1321,00	1393,44
1322,00	1659,44
1323,00	1372,49
1324,00	1363,95
1325,00	1352,83
1326,00	1368,39
1327,00	1350,72
1328,00	1386,30
1329,00	1363,13
1330,00	1363,36
1331,00	1377,05
1332,00	1367,34
1333,00	1374,60
1334,00	1355,40
1335,00	1413,68
1336,00	1398,00
1337,00	1404,44
1338,00	1374,48
1339,00	1345,69
1340,00	1380,21
1341,00	1386,65
1342,00	1375,53
1343,00	1423,28
1344,00	1391,80
1345,00	1356,57
1346,00	1356,81
1347,00	1384,66
1348,00	1396,36
1349,00	1368,28
1350,00	1492,33
1351,00	1458,27
1352,00	1420,82
1353,00	1383,72
1354,00	1526,85
1355,00	1379,51
1356,00	1364,65
1357,00	1338,67
1358,00	1394,84
1359,00	1407,83
1360,00	1371,91
1361,00	1359,85
1362,00	1369,10
1363,00	1366,29
1364,00	1391,57
1365,00	1418,60
1366,00	1363,83
1367,00	1358,80
1368,00	1366,29
1369,00	1354,59
1370,00	1384,31
1371,00	1381,38
1372,00	1354,23
1373,00	1431,59
1374,00	1379,86
1375,00	1376,82
1376,00	1381,50
1377,00	1396,60
1378,00	1416,84
1379,00	1398,12
1380,00	1502,74
1381,00	1371,44
1382,00	1363,83
1383,00	1447,50
1384,00	1368,16
1385,00	1402,68
1386,00	1421,52
1387,00	1418,60
1388,00	1381,50
1389,00	1421,29
1390,00	1357,28
1391,00	1375,42
1392,00	1443,99
1393,00	1423,51
1394,00	1404,67
1395,00	1401,28
1396,00	1458,62
1397,00	1420,71
1398,00	1582,44
1399,00	1732,23
1400,00	1583,02
1401,00	1615,67
1402,00	1775,65
1403,00	1541,94
1404,00	1466,11
1405,00	1430,89
1406,00	1416,02
1407,00	1401,04
1408,00	1392,97
1409,00	1370,27
1410,00	1370,73
1411,00	2257,91
1412,00	1429,60
1413,00	1358,80
1414,00	1343,47
1415,00	1365,12
1416,00	1353,88
1417,00	1342,88
1418,00	1396,48
1419,00	1399,87
1420,00	1354,59
1421,00	1352,13
1422,00	1347,21
1423,00	1360,09
1424,00	1381,85
1425,00	1346,86
1426,00	1396,95
1427,00	1382,55
1428,00	1335,86
1429,00	1376,35
1430,00	1339,84
1431,00	1350,26
1432,00	1384,31
1433,00	1367,58
1434,00	1403,15
1435,00	1394,02
1436,00	1378,58
1437,00	1400,58
1438,00	1367,11
1439,00	1366,17
1440,00	1364,77
1441,00	1364,53
1442,00	1341,36
1443,00	1348,62
1444,00	1340,42
1445,00	1348,03
1446,00	1394,73
1447,00	1362,78
1448,00	1391,33
1449,00	1390,04
1450,00	1378,69
1451,00	1385,60
1452,00	1473,48
1453,00	1441,89
1454,00	1485,77
1455,00	1468,22
1456,00	1414,50
1457,00	1462,37
1458,00	1416,38
1459,00	1367,11
1460,00	1371,55
1461,00	1377,05
1462,00	1375,42
1463,00	1375,77
1464,00	1347,68
1465,00	1369,33
1466,00	1342,88
1467,00	1399,06
1468,00	1370,03
1469,00	1360,90
1470,00	1359,38
1471,00	1380,80
1472,00	1367,46
1473,00	1356,34
1474,00	1366,29
1475,00	1374,01
1476,00	1464,12
1477,00	1403,27
1478,00	1558,56
1479,00	1431,35
1480,00	1375,53
1481,00	1366,52
1482,00	1369,33
1483,00	1369,80
1484,00	1412,51
1485,00	1408,53
1486,00	1373,54
1487,00	1388,29
1488,00	1392,74
1489,00	1397,30
1490,00	1396,36
1491,00	1387,12
1492,00	1368,75
1493,00	1341,95
1494,00	1341,13
1495,00	1396,95
1496,00	1365,94
1497,00	1412,16
1498,00	1417,43
1499,00	1421,06
1500,00	1411,46
1501,00	1404,09
1502,00	1394,61
1503,00	1476,18
1504,00	1407,72
1505,00	1459,44
1506,00	1444,58
1507,00	1421,99
1508,00	1477,00
1509,00	1450,20
1510,00	1417,55
1511,00	1436,15
1512,00	1412,05
1513,00	1398,24
1514,00	1385,95
1515,00	1388,17
1516,00	1630,53
1517,00	1429,48
1518,00	1362,78
1519,00	1372,49
1520,00	1384,66
1521,00	1363,83
1522,00	1388,17
1523,00	1367,11
1524,00	1364,77
1525,00	1345,11
1526,00	1363,60
1527,00	1339,25
1528,00	1371,91
1529,00	1345,22
1530,00	1345,93
1531,00	1367,69
1532,00	1349,55
1533,00	1329,31
1534,00	1368,16
1535,00	1336,68
1536,00	1387,59
1537,00	1398,12
1538,00	1391,21
1539,00	1403,62
1540,00	1392,03
1541,00	1367,69
1542,00	1355,87
1543,00	1352,83
1544,00	1406,90
1545,00	1373,78
1546,00	1371,79
1547,00	1362,07
1548,00	1361,02
1549,00	1354,23
1550,00	1368,16
1551,00	1364,88
1552,00	1343,23
1553,00	1343,70
1554,00	1359,38
1555,00	1358,92
1556,00	1363,36
1557,00	1386,77
1558,00	1368,39
1559,00	1367,58
1560,00	1381,62
1561,00	1400,58
1562,00	1477,46
1563,00	1457,33
1564,00	1463,19
1565,00	1452,65
1566,00	1444,46
1567,00	1438,73
1568,00	1418,48
1569,00	1400,46
1570,00	1384,08
1571,00	1394,37
1572,00	1403,15
1573,00	1376,70
1574,00	1417,78
1575,00	1340,54
1576,00	1350,72
1577,00	1347,10
1578,00	1387,00
1579,00	1356,34
1580,00	1365,23
1581,00	1359,50
1582,00	1350,61
1583,00	1424,80
1584,00	1370,62
1585,00	1337,27
1586,00	1371,32
1587,00	1382,44
1588,00	1401,86
1589,00	1355,99
1590,00	1372,84
1591,00	1369,92
1592,00	1439,78
1593,00	1363,95
1594,00	1375,88
1595,00	1348,50
1596,00	1359,15
1597,00	1354,47
1598,00	1357,04
1599,00	1371,09
1600,00	1340,54
1601,00	1402,57
1602,00	1415,20
1603,00	1382,67
1604,00	1347,45
1605,00	1421,64
1606,00	1348,38
1607,00	1353,65
1608,00	1349,08
1609,00	1372,96
1610,00	1356,34
1611,00	1409,12
1612,00	1364,77
1613,00	1388,87
1614,00	1372,72
1615,00	1359,85
1616,00	1405,14
1617,00	1396,48
1618,00	1406,31
1619,00	1374,95
1620,00	1439,20
1621,00	1405,37
1622,00	1397,53
1623,00	1434,75
1624,00	1410,17
1625,00	1382,91
1626,00	1456,40
1627,00	1379,28
1628,00	1370,62
1629,00	1634,98
1630,00	1392,74
1631,00	1371,09
1632,00	1385,71
1633,00	1363,01
1634,00	1379,75
1635,00	1369,80
1636,00	1367,11
1637,00	1359,97
1638,00	1356,81
1639,00	1327,67
1640,00	1379,75
1641,00	1412,75
1642,00	1397,65
1643,00	1360,55
1644,00	1434,63
1645,00	1398,35
1646,00	1353,18
1647,00	1395,19
1648,00	1371,20
1649,00	1367,11
1650,00	1448,44
1651,00	1399,99
1652,00	1356,11
1653,00	1359,15
1654,00	1364,42
1655,00	1364,65
1656,00	1349,67
1657,00	1428,43
1658,00	1346,86
1659,00	1384,66
1660,00	1390,63
1661,00	1402,33
1662,00	1377,41
1663,00	1381,85
1664,00	1383,61
1665,00	1347,68
1666,00	1380,68
1667,00	1434,28
1668,00	1354,70
1669,00	1360,67
1670,00	1397,42
1671,00	1350,72
1672,00	1354,47
1673,00	1403,27
1674,00	1405,61
1675,00	1396,60
1676,00	1396,71
1677,00	1409,94
1678,00	1436,74
1679,00	1449,49
1680,00	1462,95
1681,00	1484,13
1682,00	1561,72
1683,00	1460,73
1684,00	1455,81
1685,00	1426,56
1686,00	1390,51
1687,00	1354,82
1688,00	1409,59
1689,00	1364,06
1690,00	1340,66
1691,00	1352,95
1692,00	1349,55
1693,00	1399,52
1694,00	1368,28
1695,00	1371,55
1696,00	1370,27
1697,00	1381,03
1698,00	1371,55
1699,00	1374,48
1700,00	1383,14
1701,00	1393,55
1702,00	1364,53
1703,00	1354,94
1704,00	1351,19
1705,00	1368,16
1706,00	1356,34
1707,00	1357,98
1708,00	1354,12
1709,00	1392,50
1710,00	1365,23
1711,00	1348,03
1712,00	1366,87
1713,00	1436,50
1714,00	1389,46
1715,00	1367,11
1716,00	1418,13
1717,00	1372,96
1718,00	1436,39
1719,00	1408,65
1720,00	1356,46
1721,00	1373,54
1722,00	1357,04
1723,00	1400,46
1724,00	1374,36
1725,00	1380,68
1726,00	1388,17
1727,00	1344,40
1728,00	1422,69
1729,00	1344,17
1730,00	1441,07
1731,00	1393,79
1732,00	1455,23
1733,00	1382,09
1734,00	1346,39
1735,00	1390,16
1736,00	1364,53
1737,00	1358,68
1738,00	1374,83
1739,00	1411,81
1740,00	1399,06
1741,00	1448,91
1742,00	1388,29
1743,00	1366,05
1744,00	1359,97
1745,00	1361,26
1746,00	1361,26
1747,00	1377,52
1748,00	1372,37
1749,00	1430,42
1750,00	1375,18
1751,00	1460,85
1752,00	1369,21
1753,00	1350,72
1754,00	1366,76
1755,00	1385,13
1756,00	1359,73
1757,00	1407,13
1758,00	1353,77
1759,00	1347,10
1760,00	1368,04
1761,00	1382,09
1762,00	1374,48
1763,00	1340,31
1764,00	1376,94
1765,00	1346,16
1766,00	1352,01
1767,00	1366,17
1768,00	1359,85
1769,00	1392,62
1770,00	1346,98
1771,00	1358,68
1772,00	1454,06
1773,00	1359,15
1774,00	1332,35
1775,00	1339,02
1776,00	1360,79
1777,00	1345,57
1778,00	1349,08
1779,00	1352,95
1780,00	1354,12
1781,00	1344,75
1782,00	1348,73
1783,00	1380,21
1784,00	1377,99
1785,00	1369,56
1786,00	1382,91
1787,00	1357,16
1788,00	1376,59
1789,00	1379,86
1790,00	1407,72
1791,00	1357,74
1792,00	1381,03
1793,00	1355,64
1794,00	1359,15
1795,00	1369,80
1796,00	1357,28
1797,00	1369,33
1798,00	1359,62
1799,00	1363,95
1800,00	1408,42
1801,00	1408,89
1802,00	1429,60
1803,00	1418,83
1804,00	1447,74
1805,00	1447,74
1806,00	1431,12
1807,00	1414,85
1808,00	1391,80
1809,00	1394,61
1810,00	1404,09
1811,00	1391,10
1812,00	1351,43
1813,00	1367,46
1814,00	1381,62
1815,00	1382,91
1816,00	1451,95
1817,00	1372,61
1818,00	1530,13
1819,00	1411,81
1820,00	1395,54
1821,00	1354,70
1822,00	1340,54
1823,00	1363,95
1824,00	1380,33
1825,00	1424,57
1826,00	1362,54
1827,00	1418,48
1828,00	1454,41
1829,00	1369,80
1830,00	1392,03
1831,00	1343,12
1832,00	1334,11
1833,00	1349,44
1834,00	1349,44
1835,00	1355,76
1836,00	1326,85
1837,00	1345,57
1838,00	1375,30
1839,00	1426,44
1840,00	1454,76
1841,00	1383,61
1842,00	1393,20
1843,00	1399,52
1844,00	1454,29
1845,00	1378,81
1846,00	1343,94
1847,00	1345,57
1848,00	1372,02
1849,00	1374,01
1850,00	1376,00
1851,00	1402,33
1852,00	1348,03
1853,00	1357,16
1854,00	1358,10
1855,00	1337,97
1856,00	1343,94
1857,00	1369,33
1858,00	1432,06
1859,00	1365,35
1860,00	1383,84
1861,00	1523,10
1862,00	1355,87
1863,00	1356,57
1864,00	1338,67
1865,00	1374,13
1866,00	1382,20
1867,00	1356,46
1868,00	1379,28
1869,00	1351,07
1870,00	1363,36
1871,00	1351,07
1872,00	1365,35
1873,00	1369,45
1874,00	1389,46
1875,00	1351,78
1876,00	1352,71
1877,00	1379,63
1878,00	1394,84
1879,00	1377,87
1880,00	1346,63
1881,00	1373,78
1882,00	1363,13
1883,00	1366,76
1884,00	1355,29
1885,00	1380,33
1886,00	1368,39
1887,00	1343,70
1888,00	1356,34
1889,00	1376,70
1890,00	1331,53
1891,00	1383,72
1892,00	1401,40
1893,00	1357,04
1894,00	1376,82
1895,00	1374,13
1896,00	1396,83
1897,00	1475,12
1898,00	1365,23
1899,00	1377,05
1900,00	1361,02
1901,00	1361,26
1902,00	1350,02
1903,00	1417,78
1904,00	1378,58
1905,00	1526,50
1906,00	1368,28
1907,00	1334,81
1908,00	1525,09
1909,00	1356,22
1910,00	1350,61
1911,00	1373,19
1912,00	1390,04
1913,00	1423,28
1914,00	1356,57
1915,00	1368,98
1916,00	1371,67
1917,00	1365,00
1918,00	1357,74
1919,00	1362,19
1920,00	1338,32
1921,00	1392,85
1922,00	1361,37
1923,00	1361,26
1924,00	1398,12
1925,00	1356,93
1926,00	1374,60
1927,00	1387,59
1928,00	1424,92
1929,00	1398,59
1930,00	1353,88
1931,00	1394,14
1932,00	1467,98
1933,00	1379,86
1934,00	1351,19
1935,00	1367,11
1936,00	1396,36
1937,00	1389,46
1938,00	1404,09
1939,00	1391,10
1940,00	1453,82
1941,00	1380,10
1942,00	1372,61
1943,00	1351,19
1944,00	1378,93
1945,00	1363,13
1946,00	1348,50
1947,00	1341,71
1948,00	1445,98
1949,00	1349,90
1950,00	1391,33
1951,00	1366,64
1952,00	1362,43
1953,00	1351,54
1954,00	1382,32
1955,00	1357,16
1956,00	1361,02
1957,00	1378,69
1958,00	1347,91
1959,00	1345,69
1960,00	1355,52
1961,00	1402,33
1962,00	1333,99
1963,00	1379,98
1964,00	1343,23
1965,00	1367,58
1966,00	1350,26
1967,00	1399,29
1968,00	1352,95
1969,00	1327,67
1970,00	1362,78
1971,00	1398,94
1972,00	1356,81
1973,00	1386,42
1974,00	1386,07
1975,00	1381,15
1976,00	1377,52
1977,00	1379,28
1978,00	1367,58
1979,00	1376,24
1980,00	1556,46
1981,00	1375,30
1982,00	1346,51
1983,00	1363,48
1984,00	1361,84
1985,00	1420,94
1986,00	1351,07
1987,00	1346,86
1988,00	1364,42
1989,00	1374,36
1990,00	1405,49
1991,00	1383,37
1992,00	1392,50
1993,00	1483,08
1994,00	1361,61
1995,00	1354,35
1996,00	1373,31
1997,00	1370,62
1998,00	1376,59
1999,00	1338,55
2000,00	1357,51
2001,00	1358,33
2002,00	1407,25
2003,00	1347,56
2004,00	1381,50
2005,00	1342,18
2006,00	1434,75
2007,00	1358,92
2008,00	1340,42
2009,00	1421,99
2010,00	1362,19
2011,00	1334,81
2012,00	1372,84
2013,00	1358,10
2014,00	1374,48
2015,00	1344,40
2016,00	1349,90
2017,00	1354,70
2018,00	1370,03
2019,00	1346,28
2020,00	1333,87
2021,00	1385,36
2022,00	1369,68
2023,00	1347,91
2024,00	1354,00
2025,00	1404,44
2026,00	1357,86
2027,00	1334,22
2028,00	1374,60
2029,00	1346,16
2030,00	1355,64
2031,00	1340,66
2032,00	1345,22
2033,00	1368,63
2034,00	1413,57
2035,00	1370,97
2036,00	1366,29
2037,00	1354,70
2038,00	1350,72
2039,00	1352,01
2040,00	1374,60
2041,00	1363,71
2042,00	1349,32
2043,00	1356,46
2044,00	1384,43
2045,00	1336,56
2046,00	1336,56
2047,00	1336,56
>>>>>End Processed Spectral Data<<<<<
