SpectraSuite Datei
++++++++++++++++++++++++++++++++++++
Datum: Wed Sep 18 18:42:30 CEST 2024
Benutzer: Student
Dark-Spektrum vorhanden: Nein
Referenz-Spektrum vorhanden: Nein
Zahl der probierten Teilspektren: 1
Spektrometer: USB2+H15728
Integrationszeit (usec): 7000 (USB2+H15728)
Spektren Durchschnitt berechnet: 250 (USB2+H15728)
Boxcar Glättung: 0 (USB2+H15728)
Dunkelstromkorrektur: Nein (USB2+H15728)
Puls/Lampe aktiviert: Nein (USB2+H15728)
Correct for Detector Non-linearity: Nein (USB2+H15728)
Streulichtkorrektur: Nein (USB2+H15728)
Anzahl Pixel in verarbeitetem Spektrum: 2048
>>>>>Begin Processed Spectral Data<<<<<
0,00	946,71
1,00	946,71
2,00	946,71
3,00	915,50
4,00	915,85
5,00	914,42
6,00	918,81
7,00	929,24
8,00	937,07
9,00	949,89
10,00	962,72
11,00	977,80
12,00	989,77
13,00	1012,08
14,00	1023,42
15,00	1037,43
16,00	1062,78
17,00	1074,11
18,00	1092,33
19,00	1111,22
20,00	1122,80
21,00	1140,23
22,00	1152,18
23,00	1535,46
24,00	2511,46
25,00	2607,78
26,00	2640,75
27,00	2680,83
28,00	2692,75
29,00	2722,82
30,00	2735,30
31,00	2782,79
32,00	2792,02
33,00	2811,88
34,00	2801,10
35,00	2879,65
36,00	2866,80
37,00	2902,40
38,00	2895,85
39,00	2921,80
40,00	2924,13
41,00	2945,36
42,00	2961,82
43,00	2984,55
44,00	2997,66
45,00	3003,03
46,00	3056,66
47,00	3056,33
48,00	3064,03
49,00	3051,22
50,00	3097,33
51,00	3085,28
52,00	3124,89
53,00	3133,93
54,00	3140,43
55,00	3179,68
56,00	3176,83
57,00	3182,09
58,00	3203,02
59,00	3239,79
60,00	3235,37
61,00	3245,01
62,00	3306,64
63,00	3294,79
64,00	3270,89
65,00	3326,28
66,00	3351,83
67,00	3363,92
68,00	3378,21
69,00	3390,43
70,00	3418,86
71,00	3447,32
72,00	3468,75
73,00	3463,96
74,00	3509,83
75,00	3492,49
76,00	3536,76
77,00	3539,85
78,00	3576,34
79,00	3586,55
80,00	3591,36
81,00	3640,07
82,00	3631,26
83,00	3664,18
84,00	3707,31
85,00	3712,70
86,00	3774,54
87,00	3756,58
88,00	3795,03
89,00	3809,31
90,00	3813,81
91,00	3872,44
92,00	3884,02
93,00	3942,25
94,00	3933,64
95,00	3967,55
96,00	3930,45
97,00	3996,71
98,00	4016,76
99,00	4034,52
100,00	4058,90
101,00	4095,51
102,00	4146,05
103,00	4163,89
104,00	4211,70
105,00	4170,50
106,00	4252,31
107,00	4241,29
108,00	4275,41
109,00	4253,02
110,00	4321,18
111,00	4370,91
112,00	4326,74
113,00	4400,72
114,00	4412,79
115,00	4473,85
116,00	4444,20
117,00	4499,10
118,00	4593,47
119,00	4510,62
120,00	4568,08
121,00	4627,01
122,00	4584,73
123,00	4623,16
124,00	4681,14
125,00	4692,90
126,00	4734,09
127,00	4791,38
128,00	4731,09
129,00	4826,28
130,00	4793,78
131,00	4817,12
132,00	4878,13
133,00	4901,92
134,00	4884,61
135,00	4905,22
136,00	4973,76
137,00	5003,37
138,00	5011,47
139,00	5075,56
140,00	5075,20
141,00	5118,75
142,00	5079,31
143,00	5123,60
144,00	5135,01
145,00	5138,66
146,00	5239,28
147,00	5232,70
148,00	5183,28
149,00	5349,67
150,00	5313,68
151,00	5384,70
152,00	5322,66
153,00	5285,40
154,00	5405,45
155,00	5428,61
156,00	5324,24
157,00	5471,42
158,00	5422,69
159,00	5521,95
160,00	5541,73
161,00	5530,91
162,00	5515,93
163,00	5543,99
164,00	5664,44
165,00	5581,89
166,00	5646,15
167,00	5664,52
168,00	5705,80
169,00	5708,69
170,00	5726,27
171,00	5726,76
172,00	5737,75
173,00	5799,83
174,00	5858,36
175,00	5848,30
176,00	5921,46
177,00	5898,70
178,00	5915,33
179,00	5938,03
180,00	5918,57
181,00	6011,28
182,00	6038,63
183,00	6030,13
184,00	6050,18
185,00	6053,71
186,00	6145,95
187,00	6121,88
188,00	6179,88
189,00	6186,83
190,00	6241,99
191,00	6220,64
192,00	6294,32
193,00	6355,13
194,00	6362,98
195,00	6362,29
196,00	6419,68
197,00	6457,06
198,00	6464,92
199,00	6474,88
200,00	6516,29
201,00	6662,66
202,00	6582,19
203,00	6563,14
204,00	6681,13
205,00	6727,64
206,00	6711,62
207,00	6800,74
208,00	6803,05
209,00	6860,19
210,00	6915,26
211,00	6933,56
212,00	6965,28
213,00	6957,22
214,00	7017,62
215,00	7044,14
216,00	7088,44
217,00	7144,27
218,00	7166,17
219,00	7205,59
220,00	7257,49
221,00	7261,91
222,00	7311,53
223,00	7347,84
224,00	7411,68
225,00	7448,72
226,00	7516,47
227,00	7477,49
228,00	7602,27
229,00	7535,96
230,00	7590,85
231,00	7591,13
232,00	7697,03
233,00	7759,31
234,00	7761,48
235,00	7852,65
236,00	7842,66
237,00	7879,46
238,00	7924,82
239,00	7934,53
240,00	8059,77
241,00	7971,06
242,00	8129,97
243,00	8056,00
244,00	8151,48
245,00	8147,84
246,00	8222,57
247,00	8274,43
248,00	8208,10
249,00	8390,59
250,00	8307,78
251,00	8359,98
252,00	8337,24
253,00	8407,80
254,00	8587,18
255,00	8463,42
256,00	8661,67
257,00	8645,70
258,00	8668,63
259,00	8638,18
260,00	8736,22
261,00	8653,57
262,00	8681,65
263,00	8856,59
264,00	8839,07
265,00	8801,03
266,00	8863,35
267,00	8825,36
268,00	8968,13
269,00	9003,81
270,00	8885,79
271,00	8991,27
272,00	9033,53
273,00	9094,69
274,00	9134,35
275,00	9016,33
276,00	9094,84
277,00	9130,63
278,00	9046,79
279,00	9203,40
280,00	9299,93
281,00	9219,20
282,00	9320,47
283,00	9268,25
284,00	9359,66
285,00	9487,00
286,00	9372,38
287,00	9427,30
288,00	9490,14
289,00	9387,78
290,00	9423,55
291,00	9489,81
292,00	9639,50
293,00	9416,59
294,00	9474,90
295,00	9473,36
296,00	9591,37
297,00	9420,04
298,00	9716,01
299,00	9572,50
300,00	9684,39
301,00	9661,65
302,00	9701,30
303,00	9840,50
304,00	9667,75
305,00	9737,99
306,00	9793,28
307,00	9857,30
308,00	9925,45
309,00	9850,30
310,00	9790,29
311,00	9802,78
312,00	9950,41
313,00	9916,70
314,00	9957,26
315,00	10086,59
316,00	10014,91
317,00	9982,69
318,00	10098,19
319,00	10001,41
320,00	10112,14
321,00	10181,39
322,00	10116,12
323,00	10229,18
324,00	10147,24
325,00	10146,94
326,00	10203,77
327,00	10233,80
328,00	10346,17
329,00	10414,90
330,00	10390,29
331,00	10367,38
332,00	10355,63
333,00	10411,26
334,00	10447,67
335,00	10548,40
336,00	10486,01
337,00	10582,08
338,00	10719,09
339,00	10656,48
340,00	10694,04
341,00	10797,64
342,00	10732,66
343,00	10802,27
344,00	10807,99
345,00	10943,61
346,00	10859,54
347,00	10968,97
348,00	10933,27
349,00	11095,64
350,00	11054,99
351,00	11249,51
352,00	11192,93
353,00	11191,89
354,00	11310,95
355,00	11361,98
356,00	11426,77
357,00	11449,40
358,00	11543,36
359,00	11482,76
360,00	11605,15
361,00	11704,74
362,00	11770,20
363,00	11663,58
364,00	11923,07
365,00	11952,56
366,00	11932,74
367,00	11970,15
368,00	12172,92
369,00	12201,26
370,00	12158,69
371,00	12328,75
372,00	12322,15
373,00	12480,06
374,00	12484,27
375,00	12493,52
376,00	12612,92
377,00	12571,59
378,00	12686,12
379,00	12630,25
380,00	12737,51
381,00	12870,35
382,00	12853,45
383,00	12883,19
384,00	12782,01
385,00	12983,20
386,00	13024,71
387,00	13000,52
388,00	13031,78
389,00	13079,27
390,00	13061,94
391,00	13108,96
392,00	13170,74
393,00	13199,81
394,00	13091,92
395,00	13254,97
396,00	13338,46
397,00	13298,41
398,00	13266,41
399,00	13387,47
400,00	13420,00
401,00	13410,22
402,00	13523,96
403,00	13632,63
404,00	13644,10
405,00	13710,17
406,00	13773,70
407,00	13730,05
408,00	13846,48
409,00	13851,08
410,00	13948,14
411,00	13947,61
412,00	14075,39
413,00	14021,51
414,00	14122,42
415,00	14195,28
416,00	14344,63
417,00	14365,42
418,00	14449,40
419,00	14436,07
420,00	14458,83
421,00	14488,16
422,00	14722,01
423,00	14749,72
424,00	14749,27
425,00	14886,25
426,00	14965,23
427,00	14959,65
428,00	15072,07
429,00	15123,07
430,00	15203,00
431,00	15272,37
432,00	15159,61
433,00	15386,88
434,00	15436,62
435,00	15497,31
436,00	15533,47
437,00	15671,97
438,00	15645,25
439,00	15771,68
440,00	15835,81
441,00	15985,26
442,00	15961,86
443,00	16103,86
444,00	16070,53
445,00	16171,13
446,00	16246,35
447,00	16288,82
448,00	16392,67
449,00	16508,14
450,00	16543,07
451,00	16549,35
452,00	16679,62
453,00	16787,27
454,00	16757,53
455,00	16818,62
456,00	16929,44
457,00	16984,94
458,00	17082,52
459,00	17051,24
460,00	17242,88
461,00	17090,73
462,00	17403,75
463,00	17415,48
464,00	17505,66
465,00	17681,81
466,00	17607,74
467,00	17711,13
468,00	17831,63
469,00	17871,71
470,00	17925,85
471,00	17956,20
472,00	18037,84
473,00	18143,85
474,00	18209,79
475,00	18290,85
476,00	18373,51
477,00	18434,80
478,00	18416,19
479,00	18562,68
480,00	18643,57
481,00	18807,36
482,00	18721,81
483,00	18869,60
484,00	18880,73
485,00	18949,82
486,00	18996,77
487,00	19100,07
488,00	19127,21
489,00	19243,17
490,00	19248,52
491,00	19299,06
492,00	19324,46
493,00	19443,82
494,00	19499,86
495,00	19577,81
496,00	19577,65
497,00	19780,50
498,00	19820,67
499,00	19916,04
500,00	19911,18
501,00	19932,17
502,00	20127,75
503,00	20190,18
504,00	20220,62
505,00	20277,95
506,00	20290,44
507,00	20447,82
508,00	20415,97
509,00	20562,31
510,00	20447,29
511,00	20682,58
512,00	20787,93
513,00	20718,35
514,00	20801,02
515,00	20911,61
516,00	21067,39
517,00	20926,65
518,00	21167,31
519,00	21216,11
520,00	21179,68
521,00	21205,32
522,00	21517,61
523,00	21521,24
524,00	21514,42
525,00	21585,45
526,00	21803,51
527,00	21677,63
528,00	21603,40
529,00	21838,33
530,00	21961,06
531,00	22119,38
532,00	22243,52
533,00	22243,23
534,00	22226,73
535,00	22172,49
536,00	22347,17
537,00	22367,37
538,00	22407,52
539,00	22550,73
540,00	22569,14
541,00	22758,96
542,00	22817,65
543,00	22917,27
544,00	22934,10
545,00	22950,14
546,00	23046,32
547,00	23213,53
548,00	23217,57
549,00	23353,90
550,00	23367,33
551,00	23393,61
552,00	23434,03
553,00	23410,92
554,00	23529,14
555,00	23887,97
556,00	23772,94
557,00	23868,89
558,00	23806,74
559,00	24073,05
560,00	24250,23
561,00	24210,89
562,00	24345,90
563,00	24334,11
564,00	24223,65
565,00	24326,43
566,00	24483,92
567,00	24550,03
568,00	24594,01
569,00	24802,80
570,00	24685,85
571,00	24699,11
572,00	24941,19
573,00	25008,26
574,00	25240,91
575,00	25135,28
576,00	25304,83
577,00	25189,20
578,00	25450,40
579,00	25522,47
580,00	25610,72
581,00	25686,45
582,00	25671,34
583,00	25944,89
584,00	26023,16
585,00	26172,94
586,00	26307,18
587,00	26231,54
588,00	26414,67
589,00	26533,06
590,00	26748,01
591,00	26683,51
592,00	26789,43
593,00	26893,59
594,00	26978,03
595,00	27228,18
596,00	27160,49
597,00	27536,39
598,00	27572,96
599,00	27642,05
600,00	27708,94
601,00	27800,32
602,00	27798,41
603,00	28129,93
604,00	28282,57
605,00	28299,61
606,00	28372,54
607,00	28485,33
608,00	28875,71
609,00	28848,48
610,00	28809,06
611,00	29160,99
612,00	29332,78
613,00	29133,20
614,00	29319,95
615,00	29770,95
616,00	29864,81
617,00	29882,46
618,00	29832,71
619,00	30154,04
620,00	30287,24
621,00	30422,14
622,00	30639,02
623,00	30457,24
624,00	30976,70
625,00	31213,41
626,00	31319,56
627,00	31250,05
628,00	31276,14
629,00	31701,25
630,00	31616,27
631,00	32207,48
632,00	31888,81
633,00	31801,12
634,00	32081,39
635,00	32333,31
636,00	32783,77
637,00	32744,64
638,00	32411,50
639,00	32604,27
640,00	33010,49
641,00	33171,76
642,00	33484,26
643,00	33470,27
644,00	33253,49
645,00	33357,76
646,00	33733,82
647,00	34202,00
648,00	34630,16
649,00	34514,01
650,00	34060,89
651,00	34390,51
652,00	34711,56
653,00	35198,30
654,00	35416,05
655,00	35620,25
656,00	35438,38
657,00	35413,98
658,00	35868,98
659,00	36147,79
660,00	36425,02
661,00	36625,62
662,00	36772,77
663,00	36077,43
664,00	36174,00
665,00	36186,61
666,00	36447,66
667,00	36756,58
668,00	37289,34
669,00	37206,85
670,00	36318,34
671,00	36343,30
672,00	36476,50
673,00	36779,54
674,00	37494,19
675,00	37923,82
676,00	38355,77
677,00	37913,17
678,00	37067,82
679,00	37423,17
680,00	37877,79
681,00	38245,01
682,00	38520,78
683,00	39007,85
684,00	39275,68
685,00	38618,93
686,00	38202,43
687,00	38492,16
688,00	38777,22
689,00	39094,70
690,00	39667,07
691,00	39760,98
692,00	40077,38
693,00	39417,34
694,00	38804,33
695,00	39018,63
696,00	39266,56
697,00	39720,65
698,00	40137,17
699,00	40270,51
700,00	40692,54
701,00	40795,28
702,00	40056,57
703,00	39859,74
704,00	39893,17
705,00	40205,59
706,00	40730,77
707,00	41025,41
708,00	41311,46
709,00	41856,88
710,00	41648,81
711,00	40591,04
712,00	40164,24
713,00	40503,99
714,00	41331,56
715,00	41531,37
716,00	41533,55
717,00	41940,00
718,00	42097,07
719,00	42470,39
720,00	41732,98
721,00	41024,40
722,00	41224,72
723,00	41380,01
724,00	41995,13
725,00	42169,71
726,00	42515,48
727,00	42839,68
728,00	42862,24
729,00	43478,61
730,00	41954,58
731,00	41436,64
732,00	41793,49
733,00	42234,72
734,00	42386,26
735,00	43260,03
736,00	43462,86
737,00	43420,09
738,00	43658,66
739,00	43519,13
740,00	43185,07
741,00	42199,57
742,00	42462,39
743,00	42861,16
744,00	43609,08
745,00	43816,79
746,00	44014,04
747,00	44306,31
748,00	44392,86
749,00	44741,03
750,00	44874,65
751,00	43941,76
752,00	43324,36
753,00	43498,29
754,00	44233,41
755,00	44492,72
756,00	44213,39
757,00	44807,70
758,00	44989,75
759,00	45558,23
760,00	45318,29
761,00	45676,34
762,00	44869,65
763,00	43902,88
764,00	44046,32
765,00	44598,16
766,00	44854,78
767,00	45301,33
768,00	45458,15
769,00	45789,90
770,00	46031,48
771,00	45921,94
772,00	46183,11
773,00	46446,56
774,00	44776,98
775,00	44454,94
776,00	44954,99
777,00	45896,19
778,00	46233,03
779,00	46504,74
780,00	46456,66
781,00	46771,96
782,00	46613,40
783,00	46565,91
784,00	47042,63
785,00	46579,05
786,00	45569,01
787,00	45200,14
788,00	45624,68
789,00	46529,06
790,00	46512,10
791,00	46816,84
792,00	47056,96
793,00	47198,59
794,00	47297,41
795,00	47588,13
796,00	47596,23
797,00	48000,43
798,00	46805,72
799,00	45830,46
800,00	45489,54
801,00	46383,70
802,00	46601,09
803,00	47231,34
804,00	47564,85
805,00	47817,61
806,00	48010,76
807,00	48349,13
808,00	48433,91
809,00	48467,66
810,00	48674,07
811,00	47538,38
812,00	46329,65
813,00	46332,12
814,00	46684,09
815,00	47327,04
816,00	47779,43
817,00	48249,53
818,00	48759,90
819,00	48725,82
820,00	48842,32
821,00	49112,69
822,00	48698,03
823,00	49062,54
824,00	48636,15
825,00	47113,53
826,00	46722,33
827,00	47248,40
828,00	47788,84
829,00	48449,09
830,00	49135,30
831,00	49353,66
832,00	49776,56
833,00	49891,89
834,00	50010,57
835,00	49574,29
836,00	49381,85
837,00	49150,42
838,00	49205,71
839,00	47888,27
840,00	47764,83
841,00	47938,14
842,00	48635,56
843,00	49426,69
844,00	49665,43
845,00	50261,40
846,00	50576,02
847,00	50926,11
848,00	50705,06
849,00	50364,90
850,00	49838,61
851,00	50157,80
852,00	50560,12
853,00	50101,19
854,00	49024,11
855,00	48805,36
856,00	49583,65
857,00	50270,29
858,00	50657,74
859,00	51240,75
860,00	51516,41
861,00	51584,01
862,00	51599,64
863,00	51221,30
864,00	50867,39
865,00	50933,71
866,00	51296,85
867,00	51606,05
868,00	51041,74
869,00	50102,32
870,00	49909,20
871,00	50623,88
872,00	50825,14
873,00	51472,28
874,00	51663,34
875,00	52248,92
876,00	52613,11
877,00	52363,09
878,00	51941,21
879,00	51863,98
880,00	52276,13
881,00	52395,64
882,00	52915,79
883,00	53080,79
884,00	52450,58
885,00	51988,50
886,00	52263,31
887,00	52783,00
888,00	52563,55
889,00	52808,58
890,00	53146,45
891,00	53489,53
892,00	53188,90
893,00	52632,84
894,00	52864,55
895,00	52905,68
896,00	53031,17
897,00	53346,02
898,00	53650,77
899,00	53768,34
900,00	53176,95
901,00	52433,45
902,00	52232,23
903,00	52364,96
904,00	52912,09
905,00	53340,35
906,00	53663,51
907,00	53946,75
908,00	53297,40
909,00	53150,35
910,00	53472,40
911,00	53717,36
912,00	53948,74
913,00	54222,10
914,00	54185,49
915,00	54581,03
916,00	54520,18
917,00	54019,87
918,00	53223,92
919,00	53218,90
920,00	53586,32
921,00	53935,32
922,00	54239,52
923,00	54510,96
924,00	54228,22
925,00	54008,61
926,00	54494,35
927,00	54649,95
928,00	55082,94
929,00	55276,93
930,00	55586,74
931,00	55568,19
932,00	55798,59
933,00	55995,61
934,00	55514,23
935,00	54518,64
936,00	54331,39
937,00	54466,98
938,00	54485,74
939,00	54808,32
940,00	54795,95
941,00	54184,55
942,00	53798,22
943,00	54015,44
944,00	54582,83
945,00	54735,72
946,00	55442,68
947,00	55444,18
948,00	55758,56
949,00	55850,07
950,00	56082,28
951,00	56110,45
952,00	55762,63
953,00	54923,50
954,00	54752,30
955,00	54730,65
956,00	54937,89
957,00	54772,91
958,00	54232,40
959,00	53886,58
960,00	54191,57
961,00	54582,00
962,00	55060,04
963,00	55387,64
964,00	55815,49
965,00	55961,57
966,00	56019,95
967,00	56236,62
968,00	56561,10
969,00	56561,14
970,00	56524,50
971,00	55711,24
972,00	55206,17
973,00	55281,23
974,00	55239,95
975,00	55241,41
976,00	54485,72
977,00	54156,14
978,00	54510,69
979,00	54767,43
980,00	55111,31
981,00	55615,48
982,00	55917,65
983,00	55993,66
984,00	56392,23
985,00	56473,09
986,00	56692,09
987,00	56694,37
988,00	56909,41
989,00	56835,82
990,00	56037,47
991,00	55784,02
992,00	55640,94
993,00	55700,13
994,00	54921,49
995,00	54524,46
996,00	54358,79
997,00	54463,26
998,00	55109,34
999,00	55313,96
1000,00	55365,85
1001,00	55891,80
1002,00	56230,53
1003,00	56581,30
1004,00	56768,21
1005,00	57043,34
1006,00	57037,19
1007,00	57222,18
1008,00	56959,71
1009,00	56988,79
1010,00	56644,28
1011,00	56223,67
1012,00	56104,41
1013,00	55808,57
1014,00	55021,97
1015,00	54980,25
1016,00	54869,94
1017,00	55319,21
1018,00	55647,17
1019,00	55584,05
1020,00	55934,39
1021,00	56221,37
1022,00	56703,53
1023,00	56735,12
1024,00	57104,81
1025,00	57211,17
1026,00	57463,00
1027,00	57448,74
1028,00	57387,17
1029,00	57456,54
1030,00	57149,33
1031,00	56923,47
1032,00	56766,15
1033,00	56214,28
1034,00	55495,37
1035,00	55191,84
1036,00	55271,30
1037,00	55457,91
1038,00	55315,55
1039,00	55417,41
1040,00	55911,04
1041,00	56477,15
1042,00	56807,44
1043,00	57086,06
1044,00	57264,84
1045,00	57612,34
1046,00	57868,17
1047,00	57630,98
1048,00	57922,15
1049,00	58092,86
1050,00	57817,21
1051,00	57592,32
1052,00	57451,72
1053,00	57247,78
1054,00	56483,27
1055,00	56044,00
1056,00	55909,49
1057,00	55712,57
1058,00	55660,66
1059,00	55961,16
1060,00	56210,61
1061,00	56248,62
1062,00	56814,71
1063,00	57323,90
1064,00	57680,16
1065,00	57847,37
1066,00	57881,68
1067,00	58302,64
1068,00	58267,65
1069,00	58474,19
1070,00	58166,93
1071,00	58143,37
1072,00	58326,31
1073,00	57912,88
1074,00	57995,20
1075,00	57394,42
1076,00	56900,39
1077,00	56789,82
1078,00	56459,89
1079,00	56151,58
1080,00	56588,30
1081,00	56922,17
1082,00	57051,31
1083,00	57235,69
1084,00	57550,30
1085,00	57667,19
1086,00	58087,23
1087,00	58100,49
1088,00	58259,43
1089,00	58637,26
1090,00	58685,60
1091,00	58829,54
1092,00	59038,83
1093,00	58765,40
1094,00	58657,76
1095,00	58660,77
1096,00	58507,87
1097,00	57920,60
1098,00	57318,03
1099,00	56960,50
1100,00	56625,69
1101,00	56634,32
1102,00	56956,51
1103,00	57301,09
1104,00	57469,75
1105,00	57686,18
1106,00	57944,21
1107,00	58173,31
1108,00	58318,50
1109,00	58508,47
1110,00	58726,97
1111,00	58884,71
1112,00	58988,37
1113,00	59224,88
1114,00	59149,76
1115,00	59146,28
1116,00	59185,14
1117,00	59002,20
1118,00	58981,49
1119,00	58606,93
1120,00	58310,66
1121,00	57586,66
1122,00	57408,91
1123,00	57190,03
1124,00	57612,08
1125,00	57708,53
1126,00	58009,69
1127,00	58114,74
1128,00	58352,26
1129,00	58530,08
1130,00	58797,81
1131,00	58956,16
1132,00	59168,68
1133,00	59199,33
1134,00	59247,71
1135,00	59515,36
1136,00	59399,69
1137,00	59745,14
1138,00	59448,61
1139,00	59531,11
1140,00	59472,98
1141,00	59437,21
1142,00	59134,50
1143,00	58663,98
1144,00	58004,35
1145,00	57697,70
1146,00	57586,91
1147,00	57540,98
1148,00	57856,33
1149,00	58027,05
1150,00	58284,56
1151,00	58492,52
1152,00	58661,40
1153,00	58838,86
1154,00	58993,08
1155,00	59167,69
1156,00	59329,60
1157,00	59400,24
1158,00	59411,42
1159,00	59592,00
1160,00	59840,40
1161,00	59708,89
1162,00	59755,01
1163,00	59705,41
1164,00	59536,81
1165,00	59462,43
1166,00	59360,21
1167,00	58800,41
1168,00	58214,14
1169,00	58090,18
1170,00	57885,46
1171,00	58129,27
1172,00	58200,29
1173,00	58453,64
1174,00	58620,13
1175,00	58795,90
1176,00	58888,08
1177,00	58960,50
1178,00	59229,94
1179,00	59370,82
1180,00	59509,63
1181,00	59503,76
1182,00	59630,22
1183,00	59720,12
1184,00	59851,53
1185,00	59884,45
1186,00	59855,48
1187,00	59776,11
1188,00	59740,36
1189,00	59519,35
1190,00	59697,92
1191,00	59074,51
1192,00	58643,26
1193,00	58201,52
1194,00	58340,64
1195,00	58132,69
1196,00	58501,47
1197,00	58539,43
1198,00	58765,31
1199,00	58851,49
1200,00	58907,37
1201,00	58984,30
1202,00	59193,48
1203,00	59212,32
1204,00	59536,09
1205,00	59584,66
1206,00	59578,38
1207,00	59664,72
1208,00	59715,96
1209,00	59761,99
1210,00	59918,39
1211,00	59786,05
1212,00	59683,12
1213,00	59649,69
1214,00	59658,68
1215,00	59405,72
1216,00	58866,46
1217,00	58636,20
1218,00	58429,39
1219,00	58313,13
1220,00	58392,64
1221,00	58345,75
1222,00	58574,22
1223,00	58690,44
1224,00	58826,66
1225,00	58926,72
1226,00	58905,42
1227,00	59108,65
1228,00	59101,93
1229,00	59238,21
1230,00	59309,31
1231,00	59354,67
1232,00	59399,57
1233,00	59529,63
1234,00	59520,48
1235,00	59584,96
1236,00	59526,92
1237,00	59424,28
1238,00	59474,21
1239,00	59294,16
1240,00	59077,40
1241,00	58892,22
1242,00	58517,15
1243,00	58296,41
1244,00	58177,96
1245,00	58133,59
1246,00	58161,70
1247,00	58345,59
1248,00	58386,65
1249,00	58424,25
1250,00	58501,41
1251,00	58676,02
1252,00	58628,70
1253,00	58790,16
1254,00	58803,72
1255,00	58929,28
1256,00	58929,86
1257,00	58994,62
1258,00	58944,96
1259,00	58923,47
1260,00	59151,87
1261,00	59034,40
1262,00	59000,51
1263,00	58894,68
1264,00	58826,45
1265,00	58848,15
1266,00	58558,96
1267,00	58246,63
1268,00	58157,93
1269,00	57968,56
1270,00	57805,01
1271,00	57745,37
1272,00	57888,39
1273,00	57947,64
1274,00	57899,85
1275,00	58021,66
1276,00	58051,92
1277,00	57962,58
1278,00	58285,37
1279,00	58058,89
1280,00	58399,76
1281,00	58180,89
1282,00	58288,07
1283,00	58318,85
1284,00	58371,17
1285,00	58260,15
1286,00	58473,21
1287,00	58237,42
1288,00	58378,94
1289,00	58301,84
1290,00	58190,19
1291,00	58069,77
1292,00	58004,99
1293,00	57726,35
1294,00	57526,29
1295,00	57353,89
1296,00	57400,27
1297,00	57187,10
1298,00	57207,93
1299,00	57136,45
1300,00	57255,05
1301,00	57418,59
1302,00	57319,65
1303,00	57523,67
1304,00	57495,84
1305,00	57411,07
1306,00	57416,39
1307,00	57687,59
1308,00	57589,19
1309,00	57487,04
1310,00	57590,60
1311,00	57592,20
1312,00	57631,43
1313,00	57670,53
1314,00	57522,07
1315,00	57665,18
1316,00	57483,53
1317,00	57382,24
1318,00	57177,22
1319,00	57178,78
1320,00	57039,52
1321,00	56836,17
1322,00	56516,33
1323,00	56410,45
1324,00	56437,68
1325,00	56292,32
1326,00	56473,54
1327,00	56369,47
1328,00	56485,42
1329,00	56508,71
1330,00	56622,31
1331,00	56447,83
1332,00	56731,20
1333,00	56768,12
1334,00	56677,64
1335,00	56710,67
1336,00	56829,95
1337,00	56743,22
1338,00	56775,84
1339,00	56957,66
1340,00	57007,06
1341,00	56660,27
1342,00	56821,85
1343,00	56602,61
1344,00	56430,61
1345,00	56604,38
1346,00	56536,94
1347,00	56422,14
1348,00	56195,34
1349,00	56017,81
1350,00	55967,81
1351,00	55806,07
1352,00	55521,50
1353,00	55957,42
1354,00	55800,93
1355,00	55870,07
1356,00	56029,23
1357,00	55774,01
1358,00	55709,69
1359,00	55657,69
1360,00	55982,61
1361,00	55771,45
1362,00	56029,88
1363,00	55986,42
1364,00	55959,61
1365,00	56182,88
1366,00	55720,02
1367,00	56093,73
1368,00	55918,42
1369,00	55918,41
1370,00	55954,03
1371,00	55854,16
1372,00	56027,47
1373,00	55794,87
1374,00	55716,04
1375,00	55483,80
1376,00	55418,26
1377,00	55543,58
1378,00	55294,94
1379,00	55319,34
1380,00	55290,76
1381,00	55069,31
1382,00	55202,92
1383,00	55197,87
1384,00	55365,79
1385,00	55146,54
1386,00	54961,23
1387,00	55347,42
1388,00	55289,92
1389,00	55179,42
1390,00	54987,77
1391,00	54995,29
1392,00	55155,68
1393,00	55300,52
1394,00	55260,16
1395,00	55293,98
1396,00	55152,83
1397,00	55135,56
1398,00	55436,56
1399,00	55101,03
1400,00	55106,10
1401,00	55480,40
1402,00	55093,68
1403,00	54964,48
1404,00	54778,16
1405,00	55043,68
1406,00	54739,62
1407,00	54620,59
1408,00	54711,95
1409,00	54546,04
1410,00	54538,94
1411,00	54479,84
1412,00	54478,36
1413,00	54493,92
1414,00	54529,16
1415,00	54337,21
1416,00	54365,01
1417,00	54548,58
1418,00	54354,36
1419,00	54523,55
1420,00	54364,78
1421,00	54594,53
1422,00	54340,35
1423,00	54455,83
1424,00	54547,25
1425,00	54187,82
1426,00	54477,46
1427,00	54452,40
1428,00	54363,95
1429,00	54485,29
1430,00	54185,56
1431,00	54226,57
1432,00	54066,12
1433,00	54190,99
1434,00	54169,23
1435,00	54097,70
1436,00	54031,74
1437,00	54037,35
1438,00	53843,75
1439,00	53781,00
1440,00	53797,98
1441,00	53717,78
1442,00	53811,44
1443,00	53641,49
1444,00	53633,98
1445,00	53695,06
1446,00	53891,91
1447,00	53701,80
1448,00	53765,98
1449,00	53644,22
1450,00	53808,84
1451,00	53772,20
1452,00	53760,80
1453,00	53693,37
1454,00	53670,67
1455,00	53662,63
1456,00	53749,95
1457,00	53541,07
1458,00	53617,10
1459,00	53432,63
1460,00	53290,57
1461,00	53475,17
1462,00	53294,04
1463,00	53182,54
1464,00	53400,98
1465,00	53079,54
1466,00	53267,04
1467,00	53067,03
1468,00	53185,48
1469,00	53161,85
1470,00	52907,55
1471,00	52985,42
1472,00	53024,94
1473,00	52786,71
1474,00	52891,28
1475,00	52839,62
1476,00	52830,18
1477,00	52901,20
1478,00	52803,67
1479,00	52905,49
1480,00	52885,26
1481,00	52741,58
1482,00	52759,64
1483,00	52875,68
1484,00	52806,57
1485,00	52784,14
1486,00	52748,13
1487,00	52671,39
1488,00	52731,97
1489,00	52698,60
1490,00	52563,95
1491,00	52524,45
1492,00	52316,82
1493,00	52456,54
1494,00	52294,68
1495,00	52504,54
1496,00	52116,70
1497,00	52222,39
1498,00	51995,41
1499,00	52244,68
1500,00	51996,50
1501,00	51981,47
1502,00	52001,62
1503,00	52052,10
1504,00	51856,39
1505,00	52122,92
1506,00	52045,36
1507,00	51674,36
1508,00	51883,15
1509,00	51676,23
1510,00	51694,33
1511,00	51750,19
1512,00	51536,48
1513,00	51722,76
1514,00	51729,53
1515,00	51508,54
1516,00	51596,31
1517,00	51549,61
1518,00	51807,77
1519,00	51476,29
1520,00	51560,48
1521,00	51359,65
1522,00	51450,05
1523,00	51351,93
1524,00	51361,86
1525,00	51341,74
1526,00	51190,45
1527,00	51225,07
1528,00	51065,97
1529,00	50971,35
1530,00	51147,71
1531,00	50884,76
1532,00	50980,30
1533,00	50976,04
1534,00	50804,59
1535,00	50724,48
1536,00	50701,64
1537,00	50900,82
1538,00	50743,39
1539,00	50778,98
1540,00	50759,78
1541,00	50660,10
1542,00	50593,31
1543,00	50413,62
1544,00	50461,47
1545,00	50306,74
1546,00	50432,07
1547,00	50392,21
1548,00	50455,06
1549,00	50262,50
1550,00	50294,24
1551,00	50183,00
1552,00	50039,38
1553,00	50319,94
1554,00	50160,75
1555,00	49974,52
1556,00	49975,28
1557,00	49887,09
1558,00	49848,59
1559,00	49738,15
1560,00	49747,90
1561,00	49698,04
1562,00	49621,36
1563,00	49689,05
1564,00	49391,88
1565,00	49570,66
1566,00	49395,93
1567,00	49411,41
1568,00	49348,45
1569,00	49331,84
1570,00	49298,93
1571,00	49171,66
1572,00	49185,62
1573,00	49145,17
1574,00	49097,15
1575,00	49027,80
1576,00	48850,27
1577,00	49002,55
1578,00	48908,40
1579,00	48657,57
1580,00	48830,46
1581,00	48752,95
1582,00	48672,92
1583,00	48675,47
1584,00	48604,19
1585,00	48734,63
1586,00	48555,79
1587,00	48483,32
1588,00	48282,37
1589,00	48377,21
1590,00	48060,22
1591,00	48116,60
1592,00	48141,06
1593,00	48069,48
1594,00	47990,72
1595,00	47855,74
1596,00	47778,34
1597,00	47768,24
1598,00	47552,62
1599,00	47768,44
1600,00	47630,86
1601,00	47545,19
1602,00	47410,75
1603,00	47513,66
1604,00	47407,34
1605,00	47419,36
1606,00	47371,38
1607,00	47169,27
1608,00	47102,86
1609,00	47042,36
1610,00	47052,02
1611,00	46918,06
1612,00	46920,38
1613,00	46827,57
1614,00	46674,78
1615,00	46715,10
1616,00	46703,38
1617,00	46517,38
1618,00	46466,12
1619,00	46499,05
1620,00	46472,05
1621,00	46344,84
1622,00	46201,33
1623,00	46252,11
1624,00	46013,10
1625,00	45834,40
1626,00	46013,46
1627,00	45817,03
1628,00	45697,40
1629,00	45731,81
1630,00	45719,01
1631,00	45477,73
1632,00	45520,88
1633,00	45463,59
1634,00	45534,32
1635,00	45403,84
1636,00	45439,11
1637,00	45116,19
1638,00	45253,40
1639,00	45190,27
1640,00	45096,92
1641,00	45047,22
1642,00	44907,34
1643,00	44934,21
1644,00	44608,24
1645,00	44694,79
1646,00	44727,04
1647,00	44639,55
1648,00	44480,79
1649,00	44369,24
1650,00	44360,66
1651,00	44262,07
1652,00	44169,38
1653,00	44106,34
1654,00	44230,78
1655,00	44186,32
1656,00	43950,33
1657,00	43841,80
1658,00	43798,06
1659,00	43846,65
1660,00	43686,45
1661,00	43656,69
1662,00	43519,76
1663,00	43485,69
1664,00	43480,79
1665,00	43212,74
1666,00	43262,61
1667,00	43191,84
1668,00	43046,05
1669,00	43120,32
1670,00	42882,85
1671,00	42846,32
1672,00	42847,49
1673,00	42704,78
1674,00	42831,09
1675,00	42643,72
1676,00	42648,98
1677,00	42575,79
1678,00	42549,48
1679,00	42442,17
1680,00	42348,07
1681,00	42327,27
1682,00	42401,99
1683,00	41997,07
1684,00	41981,80
1685,00	41989,69
1686,00	41994,24
1687,00	41843,20
1688,00	41659,35
1689,00	41717,57
1690,00	41749,76
1691,00	41569,69
1692,00	41399,80
1693,00	41421,42
1694,00	41398,30
1695,00	41399,85
1696,00	41288,98
1697,00	41196,11
1698,00	40986,10
1699,00	41022,75
1700,00	41100,16
1701,00	40915,00
1702,00	40884,20
1703,00	40672,47
1704,00	40740,84
1705,00	40480,35
1706,00	40623,37
1707,00	40400,44
1708,00	40490,92
1709,00	40257,20
1710,00	40388,28
1711,00	40281,03
1712,00	40119,63
1713,00	40291,11
1714,00	40118,80
1715,00	39964,02
1716,00	39881,63
1717,00	39714,26
1718,00	39708,68
1719,00	39836,76
1720,00	39642,57
1721,00	39580,19
1722,00	39494,72
1723,00	39498,69
1724,00	39485,98
1725,00	39239,29
1726,00	39215,40
1727,00	39151,37
1728,00	39121,72
1729,00	39094,86
1730,00	38974,05
1731,00	38771,17
1732,00	38893,15
1733,00	38642,55
1734,00	38603,48
1735,00	38585,87
1736,00	38472,02
1737,00	38504,86
1738,00	38439,48
1739,00	38286,46
1740,00	38133,73
1741,00	38175,00
1742,00	38059,33
1743,00	37963,49
1744,00	37962,20
1745,00	37823,95
1746,00	37914,30
1747,00	37660,32
1748,00	37789,99
1749,00	37579,05
1750,00	37260,70
1751,00	37501,86
1752,00	37531,67
1753,00	37421,09
1754,00	37475,78
1755,00	37245,14
1756,00	37222,78
1757,00	37116,77
1758,00	37086,90
1759,00	37036,60
1760,00	36823,29
1761,00	36856,62
1762,00	36682,62
1763,00	36754,27
1764,00	36674,01
1765,00	36550,56
1766,00	36689,10
1767,00	36467,20
1768,00	36413,02
1769,00	36360,47
1770,00	36190,58
1771,00	36252,62
1772,00	36037,72
1773,00	35936,56
1774,00	36013,07
1775,00	36021,02
1776,00	35754,74
1777,00	35711,14
1778,00	35521,78
1779,00	35723,23
1780,00	35533,67
1781,00	35582,62
1782,00	35162,84
1783,00	35239,58
1784,00	35213,89
1785,00	35124,94
1786,00	34984,91
1787,00	35067,45
1788,00	35135,37
1789,00	34910,79
1790,00	34918,52
1791,00	34650,51
1792,00	34686,26
1793,00	34361,28
1794,00	34504,66
1795,00	34412,20
1796,00	34512,30
1797,00	34212,89
1798,00	34081,00
1799,00	34065,51
1800,00	33968,59
1801,00	34083,59
1802,00	33958,87
1803,00	33656,05
1804,00	33690,58
1805,00	33551,93
1806,00	33426,63
1807,00	33485,29
1808,00	33633,85
1809,00	33265,21
1810,00	33605,28
1811,00	33203,55
1812,00	33176,58
1813,00	32982,19
1814,00	32943,24
1815,00	32834,79
1816,00	32882,16
1817,00	32698,31
1818,00	32678,02
1819,00	32471,92
1820,00	32365,69
1821,00	32288,15
1822,00	32347,15
1823,00	32189,93
1824,00	31962,26
1825,00	31753,86
1826,00	31698,84
1827,00	31635,60
1828,00	31612,27
1829,00	31686,52
1830,00	31469,43
1831,00	31520,73
1832,00	31472,85
1833,00	31480,96
1834,00	31435,29
1835,00	31372,75
1836,00	31187,31
1837,00	31224,17
1838,00	30946,55
1839,00	30889,61
1840,00	30844,80
1841,00	30838,60
1842,00	30621,25
1843,00	30408,71
1844,00	30564,37
1845,00	30385,25
1846,00	30413,89
1847,00	30298,72
1848,00	30232,25
1849,00	30223,61
1850,00	30153,42
1851,00	29869,36
1852,00	29786,43
1853,00	29634,84
1854,00	29737,56
1855,00	29652,50
1856,00	29562,89
1857,00	29392,48
1858,00	29159,55
1859,00	29057,54
1860,00	29216,99
1861,00	28868,51
1862,00	28941,92
1863,00	28777,63
1864,00	28794,33
1865,00	28752,01
1866,00	28578,32
1867,00	28539,24
1868,00	28351,91
1869,00	28248,70
1870,00	28350,42
1871,00	28323,31
1872,00	28003,58
1873,00	27926,03
1874,00	27728,02
1875,00	27990,58
1876,00	27725,21
1877,00	27799,68
1878,00	27672,47
1879,00	27299,96
1880,00	27274,67
1881,00	27163,29
1882,00	27219,61
1883,00	27110,03
1884,00	27120,16
1885,00	26886,03
1886,00	26668,29
1887,00	26694,04
1888,00	26698,33
1889,00	26511,29
1890,00	26436,86
1891,00	26414,82
1892,00	26425,01
1893,00	26187,27
1894,00	26119,55
1895,00	25963,96
1896,00	25825,29
1897,00	25953,95
1898,00	25656,42
1899,00	25731,78
1900,00	25597,58
1901,00	25554,67
1902,00	25497,96
1903,00	25230,65
1904,00	25198,38
1905,00	25120,77
1906,00	25036,96
1907,00	24869,63
1908,00	24879,13
1909,00	24800,40
1910,00	24548,04
1911,00	24584,86
1912,00	24484,93
1913,00	24353,11
1914,00	24356,64
1915,00	24293,97
1916,00	23908,04
1917,00	23817,71
1918,00	24012,01
1919,00	23736,20
1920,00	23632,12
1921,00	23437,43
1922,00	23292,11
1923,00	23264,55
1924,00	23286,85
1925,00	23158,61
1926,00	23060,50
1927,00	22882,41
1928,00	22824,07
1929,00	22712,76
1930,00	22831,50
1931,00	22678,54
1932,00	22493,49
1933,00	22564,79
1934,00	22276,75
1935,00	22242,48
1936,00	22228,48
1937,00	22052,33
1938,00	21855,16
1939,00	21969,00
1940,00	21752,51
1941,00	21708,81
1942,00	21505,24
1943,00	21510,06
1944,00	21240,10
1945,00	21206,70
1946,00	21100,23
1947,00	20942,83
1948,00	20914,99
1949,00	20869,65
1950,00	20680,18
1951,00	20573,30
1952,00	20604,78
1953,00	20472,82
1954,00	20432,85
1955,00	20383,38
1956,00	20150,48
1957,00	20132,13
1958,00	19921,23
1959,00	19961,40
1960,00	19783,86
1961,00	19751,17
1962,00	19618,81
1963,00	19584,03
1964,00	19428,80
1965,00	19377,20
1966,00	19070,32
1967,00	19100,62
1968,00	18930,49
1969,00	18879,91
1970,00	18766,36
1971,00	18623,44
1972,00	18501,19
1973,00	18474,66
1974,00	18444,93
1975,00	18385,83
1976,00	18196,01
1977,00	18078,08
1978,00	17915,56
1979,00	18003,16
1980,00	17856,35
1981,00	17711,20
1982,00	17731,89
1983,00	17556,11
1984,00	17542,10
1985,00	17413,08
1986,00	17228,90
1987,00	17210,13
1988,00	17122,67
1989,00	16904,87
1990,00	16822,65
1991,00	16832,53
1992,00	16587,00
1993,00	16513,58
1994,00	16357,92
1995,00	16438,31
1996,00	16257,97
1997,00	16099,79
1998,00	16083,48
1999,00	15970,96
2000,00	15892,43
2001,00	15865,49
2002,00	15845,67
2003,00	15577,87
2004,00	15536,50
2005,00	15496,45
2006,00	15346,86
2007,00	15319,30
2008,00	15241,27
2009,00	15146,94
2010,00	15069,66
2011,00	14901,43
2012,00	14769,11
2013,00	14613,71
2014,00	14632,80
2015,00	14437,02
2016,00	14411,56
2017,00	14275,20
2018,00	14238,69
2019,00	14153,67
2020,00	14090,52
2021,00	13982,89
2022,00	13852,72
2023,00	13856,93
2024,00	13741,71
2025,00	13664,43
2026,00	13500,72
2027,00	13405,49
2028,00	13396,58
2029,00	13236,45
2030,00	13194,71
2031,00	13089,83
2032,00	12976,98
2033,00	12886,95
2034,00	12864,63
2035,00	12663,76
2036,00	12584,85
2037,00	12483,65
2038,00	12423,70
2039,00	12316,64
2040,00	12204,28
2041,00	12146,19
2042,00	12082,02
2043,00	12020,38
2044,00	11897,40
2045,00	11839,79
2046,00	11839,79
2047,00	11839,79
>>>>>End Processed Spectral Data<<<<<
