SpectraSuite Datei
++++++++++++++++++++++++++++++++++++
Datum: Wed Sep 18 18:17:07 CEST 2024
Benutzer: Student
Dark-Spektrum vorhanden: Nein
Referenz-Spektrum vorhanden: Nein
Zahl der probierten Teilspektren: 1
Spektrometer: USB2+H15728
Integrationszeit (usec): 5000 (USB2+H15728)
Spektren Durchschnitt berechnet: 500 (USB2+H15728)
Boxcar Glättung: 0 (USB2+H15728)
Dunkelstromkorrektur: Nein (USB2+H15728)
Puls/Lampe aktiviert: Nein (USB2+H15728)
Correct for Detector Non-linearity: Nein (USB2+H15728)
Streulichtkorrektur: Nein (USB2+H15728)
Anzahl Pixel in verarbeitetem Spektrum: 2048
>>>>>Begin Processed Spectral Data<<<<<
0,00	982,60
1,00	982,60
2,00	982,60
3,00	952,44
4,00	949,14
5,00	953,45
6,00	957,14
7,00	964,46
8,00	972,41
9,00	985,15
10,00	998,05
11,00	1012,75
12,00	1027,79
13,00	1045,71
14,00	1058,45
15,00	1078,19
16,00	1093,91
17,00	1113,06
18,00	1127,38
19,00	1143,38
20,00	1159,52
21,00	1175,74
22,00	1191,07
23,00	1225,85
24,00	1293,75
25,00	1309,60
26,00	1326,23
27,00	1338,51
28,00	1345,19
29,00	1356,93
30,00	1364,79
31,00	1372,51
32,00	1383,44
33,00	1393,25
34,00	1397,57
35,00	1402,29
36,00	1408,21
37,00	1413,10
38,00	1415,11
39,00	1418,20
40,00	1425,49
41,00	1427,67
42,00	1427,49
43,00	1431,39
44,00	1435,31
45,00	1432,33
46,00	1439,72
47,00	1440,81
48,00	1437,59
49,00	1444,19
50,00	1447,52
51,00	1447,52
52,00	1451,90
53,00	1454,79
54,00	1454,39
55,00	1461,33
56,00	1459,41
57,00	1462,52
58,00	1469,98
59,00	1470,77
60,00	1472,64
61,00	1482,95
62,00	1484,61
63,00	1491,18
64,00	1495,51
65,00	1504,62
66,00	1509,58
67,00	1516,55
68,00	1525,74
69,00	1530,01
70,00	1542,21
71,00	1548,24
72,00	1557,27
73,00	1566,21
74,00	1583,14
75,00	1587,08
76,00	1597,29
77,00	1609,15
78,00	1621,77
79,00	1633,80
80,00	1642,78
81,00	1663,04
82,00	1671,88
83,00	1683,13
84,00	1704,98
85,00	1719,39
86,00	1737,99
87,00	1747,58
88,00	1767,61
89,00	1786,44
90,00	1800,52
91,00	1828,07
92,00	1840,92
93,00	1867,14
94,00	1886,48
95,00	1907,21
96,00	1921,58
97,00	1948,56
98,00	1972,43
99,00	1995,98
100,00	2019,93
101,00	2048,96
102,00	2080,46
103,00	2110,82
104,00	2138,22
105,00	2154,66
106,00	2201,74
107,00	2226,46
108,00	2263,69
109,00	2278,21
110,00	2330,32
111,00	2374,74
112,00	2390,44
113,00	2437,13
114,00	2470,58
115,00	2523,12
116,00	2556,38
117,00	2614,73
118,00	2668,28
119,00	2677,67
120,00	2737,05
121,00	2791,19
122,00	2821,01
123,00	2869,43
124,00	2935,91
125,00	2988,46
126,00	3054,86
127,00	3115,03
128,00	3141,86
129,00	3245,00
130,00	3263,55
131,00	3322,99
132,00	3398,14
133,00	3476,10
134,00	3520,52
135,00	3595,66
136,00	3679,57
137,00	3762,72
138,00	3815,91
139,00	3918,25
140,00	3976,98
141,00	4083,35
142,00	4109,50
143,00	4201,49
144,00	4280,09
145,00	4346,92
146,00	4504,68
147,00	4565,28
148,00	4596,85
149,00	4803,68
150,00	4861,93
151,00	5001,90
152,00	5004,50
153,00	5058,02
154,00	5266,09
155,00	5351,67
156,00	5367,50
157,00	5561,98
158,00	5628,33
159,00	5798,68
160,00	5896,15
161,00	6008,65
162,00	6054,29
163,00	6186,35
164,00	6405,07
165,00	6436,92
166,00	6606,88
167,00	6721,06
168,00	6838,90
169,00	7008,16
170,00	7123,00
171,00	7231,42
172,00	7353,15
173,00	7545,28
174,00	7715,00
175,00	7859,53
176,00	8049,91
177,00	8163,46
178,00	8299,35
179,00	8425,48
180,00	8548,74
181,00	8795,33
182,00	8990,38
183,00	9103,16
184,00	9256,97
185,00	9375,41
186,00	9671,59
187,00	9816,26
188,00	9987,78
189,00	10158,26
190,00	10404,87
191,00	10484,07
192,00	10801,42
193,00	11041,55
194,00	11185,61
195,00	11337,12
196,00	11638,61
197,00	11879,88
198,00	12054,55
199,00	12196,86
200,00	12477,04
201,00	12878,45
202,00	12974,97
203,00	12987,16
204,00	13468,22
205,00	13718,48
206,00	13863,73
207,00	14254,99
208,00	14450,68
209,00	14723,65
210,00	15094,42
211,00	15247,20
212,00	15560,86
213,00	15710,20
214,00	16044,74
215,00	16336,34
216,00	16596,53
217,00	17017,92
218,00	17134,57
219,00	17501,81
220,00	17850,51
221,00	18128,85
222,00	18394,30
223,00	18773,38
224,00	19194,15
225,00	19479,26
226,00	19898,60
227,00	19918,31
228,00	20587,97
229,00	20674,40
230,00	20998,30
231,00	21375,56
232,00	21836,59
233,00	22308,55
234,00	22370,51
235,00	22971,27
236,00	23288,54
237,00	23627,06
238,00	24141,54
239,00	24349,12
240,00	25018,83
241,00	24990,80
242,00	25864,55
243,00	25931,14
244,00	26543,51
245,00	26768,18
246,00	27291,97
247,00	27890,14
248,00	27897,05
249,00	28903,58
250,00	28773,23
251,00	29501,23
252,00	29593,19
253,00	30111,44
254,00	31279,51
255,00	31011,78
256,00	32170,00
257,00	32272,20
258,00	33037,72
259,00	33120,43
260,00	33971,53
261,00	33846,11
262,00	34407,88
263,00	35655,82
264,00	35658,48
265,00	35935,78
266,00	36846,16
267,00	36868,61
268,00	37924,24
269,00	38276,87
270,00	38214,04
271,00	39159,87
272,00	39614,83
273,00	40247,79
274,00	40879,72
275,00	40979,64
276,00	41398,84
277,00	41967,82
278,00	41688,74
279,00	42929,77
280,00	43973,16
281,00	43617,42
282,00	44319,57
283,00	44845,43
284,00	45072,92
285,00	46177,89
286,00	45763,96
287,00	46531,41
288,00	46970,40
289,00	46656,26
290,00	46903,28
291,00	47383,05
292,00	48133,01
293,00	47179,19
294,00	47553,37
295,00	47658,68
296,00	48215,89
297,00	47473,53
298,00	48835,28
299,00	48295,90
300,00	49111,15
301,00	48808,70
302,00	48935,07
303,00	49537,25
304,00	48397,27
305,00	48925,62
306,00	49038,76
307,00	48889,88
308,00	48942,18
309,00	48479,17
310,00	47851,21
311,00	47762,13
312,00	48134,36
313,00	47383,93
314,00	47305,56
315,00	47614,65
316,00	47016,10
317,00	46409,71
318,00	46438,73
319,00	45472,17
320,00	45506,45
321,00	45261,64
322,00	44375,39
323,00	44266,78
324,00	43368,88
325,00	42617,54
326,00	42483,62
327,00	41989,83
328,00	41790,07
329,00	41470,09
330,00	40576,47
331,00	39768,15
332,00	39073,02
333,00	38714,07
334,00	38233,85
335,00	37865,60
336,00	37191,18
337,00	36731,84
338,00	36506,35
339,00	35658,31
340,00	35027,75
341,00	34812,84
342,00	33951,39
343,00	33474,83
344,00	32816,80
345,00	32636,75
346,00	31748,83
347,00	31656,37
348,00	30920,44
349,00	30637,72
350,00	29989,93
351,00	30018,58
352,00	29306,59
353,00	28742,88
354,00	28481,09
355,00	28072,97
356,00	27858,21
357,00	27310,60
358,00	27131,08
359,00	26506,86
360,00	26337,65
361,00	26149,32
362,00	25860,33
363,00	25227,15
364,00	25351,83
365,00	25097,51
366,00	24667,36
367,00	24325,42
368,00	24421,58
369,00	24084,19
370,00	23715,78
371,00	23706,59
372,00	23261,66
373,00	23316,43
374,00	23010,35
375,00	22745,15
376,00	22641,43
377,00	22311,49
378,00	22207,72
379,00	21838,60
380,00	21730,91
381,00	21640,34
382,00	21337,32
383,00	21228,48
384,00	20701,79
385,00	20753,61
386,00	20611,58
387,00	20371,42
388,00	20135,97
389,00	19996,38
390,00	19775,17
391,00	19647,07
392,00	19479,50
393,00	19297,70
394,00	18909,52
395,00	18972,85
396,00	18836,44
397,00	18583,14
398,00	18290,75
399,00	18268,57
400,00	18084,50
401,00	17889,26
402,00	17780,68
403,00	17686,01
404,00	17510,97
405,00	17377,44
406,00	17240,84
407,00	16964,11
408,00	16836,52
409,00	16642,55
410,00	16563,52
411,00	16331,61
412,00	16276,60
413,00	16058,36
414,00	15904,00
415,00	15753,56
416,00	15685,68
417,00	15521,54
418,00	15346,35
419,00	15185,45
420,00	14988,89
421,00	14836,85
422,00	14833,81
423,00	14659,60
424,00	14462,24
425,00	14356,11
426,00	14275,43
427,00	14025,13
428,00	13949,69
429,00	13824,23
430,00	13690,11
431,00	13543,01
432,00	13286,96
433,00	13291,08
434,00	13141,97
435,00	13008,58
436,00	12872,45
437,00	12821,89
438,00	12624,83
439,00	12574,57
440,00	12445,38
441,00	12376,16
442,00	12227,37
443,00	12177,20
444,00	12013,29
445,00	11931,06
446,00	11854,13
447,00	11723,40
448,00	11670,92
449,00	11610,14
450,00	11510,28
451,00	11397,92
452,00	11351,77
453,00	11290,57
454,00	11178,52
455,00	11083,37
456,00	11042,86
457,00	10995,28
458,00	10924,69
459,00	10815,40
460,00	10838,38
461,00	10720,74
462,00	10764,51
463,00	10703,52
464,00	10663,94
465,00	10666,43
466,00	10558,32
467,00	10545,36
468,00	10532,14
469,00	10491,42
470,00	10457,57
471,00	10411,63
472,00	10370,43
473,00	10370,85
474,00	10331,70
475,00	10342,41
476,00	10322,48
477,00	10295,86
478,00	10228,55
479,00	10252,20
480,00	10234,93
481,00	10280,93
482,00	10192,51
483,00	10211,82
484,00	10183,98
485,00	10158,49
486,00	10153,43
487,00	10170,87
488,00	10135,79
489,00	10143,71
490,00	10092,59
491,00	10090,45
492,00	10069,32
493,00	10114,97
494,00	10117,51
495,00	10115,98
496,00	10090,15
497,00	10128,14
498,00	10139,87
499,00	10134,26
500,00	10117,38
501,00	10098,54
502,00	10166,63
503,00	10166,40
504,00	10175,12
505,00	10174,64
506,00	10160,67
507,00	10224,96
508,00	10198,52
509,00	10229,12
510,00	10199,09
511,00	10261,38
512,00	10310,17
513,00	10250,51
514,00	10307,69
515,00	10327,24
516,00	10378,44
517,00	10348,41
518,00	10432,11
519,00	10445,68
520,00	10451,37
521,00	10424,91
522,00	10576,17
523,00	10575,59
524,00	10576,24
525,00	10646,72
526,00	10754,51
527,00	10705,77
528,00	10684,03
529,00	10815,67
530,00	10878,21
531,00	10975,50
532,00	11025,39
533,00	11089,29
534,00	11086,56
535,00	11078,01
536,00	11200,40
537,00	11252,97
538,00	11309,75
539,00	11390,65
540,00	11450,84
541,00	11568,63
542,00	11628,53
543,00	11747,83
544,00	11802,22
545,00	11832,27
546,00	11921,78
547,00	12082,94
548,00	12119,65
549,00	12259,61
550,00	12314,56
551,00	12385,84
552,00	12479,88
553,00	12511,67
554,00	12669,84
555,00	12872,59
556,00	12920,99
557,00	13039,64
558,00	13065,15
559,00	13271,17
560,00	13454,89
561,00	13533,23
562,00	13649,40
563,00	13759,57
564,00	13821,44
565,00	13949,40
566,00	14095,80
567,00	14229,32
568,00	14381,33
569,00	14564,16
570,00	14582,00
571,00	14701,16
572,00	14919,59
573,00	15088,85
574,00	15295,00
575,00	15334,50
576,00	15544,82
577,00	15575,29
578,00	15835,43
579,00	15987,52
580,00	16142,36
581,00	16306,83
582,00	16382,06
583,00	16688,80
584,00	16817,11
585,00	17024,87
586,00	17253,22
587,00	17313,82
588,00	17532,34
589,00	17690,11
590,00	18004,00
591,00	18040,26
592,00	18277,75
593,00	18423,33
594,00	18601,29
595,00	18871,85
596,00	18947,13
597,00	19335,05
598,00	19485,26
599,00	19664,19
600,00	19843,14
601,00	19985,23
602,00	20166,10
603,00	20490,12
604,00	20685,82
605,00	20861,36
606,00	21084,58
607,00	21287,50
608,00	21637,90
609,00	21721,26
610,00	21892,09
611,00	22267,16
612,00	22483,56
613,00	22485,70
614,00	22817,74
615,00	23250,12
616,00	23359,44
617,00	23551,22
618,00	23709,29
619,00	24066,13
620,00	24251,93
621,00	24423,28
622,00	24803,69
623,00	24890,69
624,00	25354,98
625,00	25568,49
626,00	25725,40
627,00	25968,95
628,00	26135,12
629,00	26561,93
630,00	26620,02
631,00	27111,44
632,00	27050,27
633,00	27268,64
634,00	27646,97
635,00	27911,73
636,00	28249,67
637,00	28317,98
638,00	28361,54
639,00	28720,76
640,00	29130,59
641,00	29381,54
642,00	29612,51
643,00	29729,31
644,00	29894,02
645,00	30169,34
646,00	30617,38
647,00	31005,72
648,00	31303,32
649,00	31318,87
650,00	31247,81
651,00	31783,11
652,00	32156,11
653,00	32599,44
654,00	32728,43
655,00	32978,43
656,00	33100,04
657,00	33401,68
658,00	33893,60
659,00	34240,43
660,00	34588,86
661,00	34663,18
662,00	34856,27
663,00	34500,79
664,00	34865,22
665,00	35060,03
666,00	35458,63
667,00	35754,63
668,00	36137,28
669,00	36040,91
670,00	35714,12
671,00	36129,01
672,00	36491,14
673,00	36856,94
674,00	37463,03
675,00	37640,40
676,00	37690,88
677,00	37445,06
678,00	37147,98
679,00	37771,02
680,00	38386,92
681,00	38861,95
682,00	39045,84
683,00	39443,89
684,00	39475,58
685,00	39065,22
686,00	39140,61
687,00	39576,45
688,00	39975,19
689,00	40473,92
690,00	41020,94
691,00	40963,87
692,00	41043,09
693,00	40506,21
694,00	40249,65
695,00	40687,79
696,00	41082,30
697,00	41721,74
698,00	42208,85
699,00	42308,95
700,00	42463,74
701,00	42441,36
702,00	41835,03
703,00	41980,75
704,00	42344,39
705,00	42790,55
706,00	43391,64
707,00	43727,81
708,00	43966,86
709,00	44231,41
710,00	43743,81
711,00	43046,13
712,00	43004,98
713,00	43521,72
714,00	44363,18
715,00	44667,60
716,00	44822,81
717,00	45168,49
718,00	45306,58
719,00	45259,40
720,00	44504,05
721,00	44120,88
722,00	44612,26
723,00	44940,36
724,00	45578,09
725,00	45890,05
726,00	46344,51
727,00	46677,56
728,00	46488,55
729,00	46715,18
730,00	45176,93
731,00	45053,70
732,00	45630,48
733,00	46158,84
734,00	46368,65
735,00	47358,47
736,00	47601,19
737,00	47562,86
738,00	47608,31
739,00	47178,17
740,00	46808,94
741,00	46162,24
742,00	46545,63
743,00	47019,84
744,00	47737,38
745,00	47998,76
746,00	48372,17
747,00	48696,30
748,00	48858,20
749,00	48949,80
750,00	48670,36
751,00	47700,27
752,00	47403,40
753,00	47704,70
754,00	48495,28
755,00	48816,40
756,00	48672,97
757,00	49502,10
758,00	49751,60
759,00	50229,24
760,00	49763,12
761,00	49657,33
762,00	48891,78
763,00	48070,92
764,00	48473,47
765,00	48928,48
766,00	49318,19
767,00	49772,59
768,00	50153,67
769,00	50421,30
770,00	50663,40
771,00	50350,20
772,00	50362,19
773,00	50435,42
774,00	49023,09
775,00	48883,64
776,00	49529,96
777,00	50410,30
778,00	50569,52
779,00	50922,59
780,00	50958,18
781,00	51462,18
782,00	51311,82
783,00	51166,62
784,00	51350,93
785,00	50456,99
786,00	49664,74
787,00	49583,95
788,00	50076,68
789,00	50899,98
790,00	50722,50
791,00	51107,77
792,00	51412,29
793,00	51689,21
794,00	51873,73
795,00	52216,22
796,00	52008,12
797,00	51963,24
798,00	50755,82
799,00	50035,90
800,00	49732,76
801,00	50566,16
802,00	50735,92
803,00	51396,55
804,00	51745,57
805,00	52043,26
806,00	52359,19
807,00	52771,74
808,00	52834,22
809,00	52664,23
810,00	52378,28
811,00	51180,86
812,00	50239,92
813,00	50363,44
814,00	50729,00
815,00	51251,91
816,00	51647,82
817,00	52053,56
818,00	52622,81
819,00	52698,11
820,00	52956,48
821,00	53087,51
822,00	52522,10
823,00	52590,18
824,00	51909,42
825,00	50617,41
826,00	50500,77
827,00	50886,13
828,00	51427,23
829,00	51941,07
830,00	52628,01
831,00	52818,70
832,00	53183,19
833,00	53353,15
834,00	53456,22
835,00	53057,59
836,00	52884,18
837,00	52514,32
838,00	52211,67
839,00	51081,02
840,00	51071,71
841,00	51189,62
842,00	51832,38
843,00	52533,33
844,00	52644,57
845,00	53274,46
846,00	53504,17
847,00	53807,76
848,00	53580,98
849,00	53446,11
850,00	53071,74
851,00	53161,19
852,00	53058,23
853,00	52375,31
854,00	51579,53
855,00	51630,61
856,00	52259,60
857,00	52777,48
858,00	53126,97
859,00	53583,93
860,00	53810,10
861,00	53785,19
862,00	53726,41
863,00	53560,18
864,00	53389,45
865,00	53423,93
866,00	53647,98
867,00	53559,75
868,00	52758,00
869,00	52032,79
870,00	52002,39
871,00	52619,69
872,00	52794,44
873,00	53311,86
874,00	53419,29
875,00	53844,20
876,00	53899,37
877,00	53673,55
878,00	53401,41
879,00	53506,22
880,00	53909,94
881,00	53907,74
882,00	54171,66
883,00	54005,46
884,00	53454,33
885,00	53105,80
886,00	53359,66
887,00	53840,36
888,00	53657,39
889,00	53832,08
890,00	53973,63
891,00	54116,10
892,00	53790,33
893,00	53309,70
894,00	53649,84
895,00	53721,40
896,00	53843,40
897,00	54133,94
898,00	54206,22
899,00	53964,21
900,00	53266,64
901,00	52739,18
902,00	52672,43
903,00	52786,02
904,00	53372,51
905,00	53616,29
906,00	53662,19
907,00	53717,05
908,00	53055,53
909,00	53131,51
910,00	53353,69
911,00	53632,15
912,00	53885,26
913,00	54120,06
914,00	54007,52
915,00	54182,99
916,00	53855,96
917,00	53310,71
918,00	52658,79
919,00	52746,73
920,00	53088,03
921,00	53303,65
922,00	53439,17
923,00	53431,05
924,00	53092,68
925,00	52875,31
926,00	53360,68
927,00	53382,36
928,00	53833,38
929,00	54049,72
930,00	54416,81
931,00	54312,55
932,00	54437,95
933,00	54366,45
934,00	53793,90
935,00	52932,03
936,00	52941,94
937,00	53049,51
938,00	52938,34
939,00	52980,73
940,00	52752,61
941,00	52111,69
942,00	51845,46
943,00	51996,11
944,00	52525,90
945,00	52546,94
946,00	53232,46
947,00	53234,50
948,00	53561,77
949,00	53581,05
950,00	53684,15
951,00	53477,45
952,00	53129,36
953,00	52426,36
954,00	52412,13
955,00	52220,42
956,00	52207,68
957,00	51779,91
958,00	51213,83
959,00	51010,85
960,00	51103,69
961,00	51396,39
962,00	51800,46
963,00	52001,58
964,00	52394,12
965,00	52544,25
966,00	52594,01
967,00	52869,40
968,00	53058,93
969,00	52986,85
970,00	52758,56
971,00	52075,11
972,00	51648,62
973,00	51625,61
974,00	51216,27
975,00	51097,65
976,00	50304,32
977,00	50037,96
978,00	50273,45
979,00	50425,97
980,00	50632,91
981,00	51040,47
982,00	51305,30
983,00	51322,11
984,00	51725,57
985,00	51821,49
986,00	52009,35
987,00	51965,44
988,00	52150,52
989,00	51987,82
990,00	51166,92
991,00	50907,56
992,00	50633,27
993,00	50394,05
994,00	49471,90
995,00	49124,77
996,00	48939,18
997,00	48957,63
998,00	49515,47
999,00	49583,94
1000,00	49466,86
1001,00	49971,20
1002,00	50204,40
1003,00	50462,93
1004,00	50699,12
1005,00	50994,56
1006,00	50855,97
1007,00	51109,24
1008,00	50696,92
1009,00	50760,30
1010,00	50357,33
1011,00	49820,57
1012,00	49451,04
1013,00	49050,20
1014,00	48264,54
1015,00	48228,98
1016,00	47951,48
1017,00	48179,39
1018,00	48440,15
1019,00	48352,48
1020,00	48541,04
1021,00	48791,45
1022,00	49165,91
1023,00	49127,75
1024,00	49474,23
1025,00	49557,40
1026,00	49756,01
1027,00	49740,70
1028,00	49673,50
1029,00	49721,79
1030,00	49251,98
1031,00	48930,40
1032,00	48551,41
1033,00	47883,80
1034,00	47125,29
1035,00	46693,80
1036,00	46650,21
1037,00	46837,48
1038,00	46754,03
1039,00	46762,61
1040,00	47133,31
1041,00	47512,96
1042,00	47682,77
1043,00	47887,73
1044,00	48011,86
1045,00	48348,03
1046,00	48552,19
1047,00	48179,84
1048,00	48600,08
1049,00	48776,16
1050,00	48445,69
1051,00	48065,03
1052,00	47741,48
1053,00	47390,45
1054,00	46649,23
1055,00	46081,32
1056,00	45751,12
1057,00	45472,00
1058,00	45355,35
1059,00	45565,13
1060,00	45753,09
1061,00	45567,74
1062,00	46106,91
1063,00	46553,35
1064,00	46848,60
1065,00	46883,64
1066,00	46855,22
1067,00	47182,08
1068,00	47049,06
1069,00	47225,76
1070,00	46897,43
1071,00	46911,14
1072,00	47121,73
1073,00	46397,49
1074,00	46395,45
1075,00	45589,16
1076,00	45034,29
1077,00	44801,62
1078,00	44469,21
1079,00	44071,42
1080,00	44435,67
1081,00	44623,42
1082,00	44634,00
1083,00	44775,98
1084,00	45067,13
1085,00	45051,96
1086,00	45353,96
1087,00	45295,55
1088,00	45336,23
1089,00	45741,83
1090,00	45592,61
1091,00	45781,96
1092,00	46067,14
1093,00	45654,03
1094,00	45642,05
1095,00	45459,90
1096,00	45111,52
1097,00	44404,51
1098,00	43664,39
1099,00	43263,51
1100,00	42833,41
1101,00	42694,40
1102,00	42967,15
1103,00	43224,71
1104,00	43212,47
1105,00	43326,79
1106,00	43477,04
1107,00	43625,68
1108,00	43756,16
1109,00	43799,95
1110,00	43948,64
1111,00	44087,41
1112,00	44067,76
1113,00	44256,23
1114,00	44118,39
1115,00	44072,91
1116,00	44133,54
1117,00	43891,64
1118,00	43734,19
1119,00	43121,50
1120,00	42749,93
1121,00	41929,04
1122,00	41719,89
1123,00	41386,33
1124,00	41750,56
1125,00	41637,84
1126,00	41825,43
1127,00	41813,38
1128,00	41938,64
1129,00	41965,54
1130,00	42181,57
1131,00	42286,22
1132,00	42396,00
1133,00	42283,68
1134,00	42261,43
1135,00	42478,31
1136,00	42294,59
1137,00	42613,66
1138,00	42238,48
1139,00	42291,54
1140,00	42257,38
1141,00	42143,31
1142,00	41557,13
1143,00	41003,33
1144,00	40235,52
1145,00	39927,33
1146,00	39716,88
1147,00	39554,01
1148,00	39751,01
1149,00	39802,41
1150,00	39962,43
1151,00	40032,17
1152,00	40077,40
1153,00	40204,02
1154,00	40246,56
1155,00	40331,96
1156,00	40361,85
1157,00	40313,67
1158,00	40249,72
1159,00	40331,49
1160,00	40545,01
1161,00	40286,11
1162,00	40312,29
1163,00	40317,90
1164,00	40031,95
1165,00	39786,99
1166,00	39465,84
1167,00	38892,79
1168,00	38284,01
1169,00	38132,13
1170,00	37811,65
1171,00	37945,86
1172,00	37855,90
1173,00	37980,02
1174,00	38085,66
1175,00	38066,01
1176,00	38059,61
1177,00	38022,70
1178,00	38172,04
1179,00	38246,35
1180,00	38247,36
1181,00	38144,69
1182,00	38156,36
1183,00	38129,19
1184,00	38190,89
1185,00	38152,23
1186,00	38052,69
1187,00	37984,40
1188,00	37883,56
1189,00	37569,19
1190,00	37556,12
1191,00	36873,97
1192,00	36389,55
1193,00	35913,02
1194,00	35977,60
1195,00	35665,35
1196,00	35872,67
1197,00	35802,36
1198,00	35915,18
1199,00	35909,87
1200,00	35818,29
1201,00	35815,84
1202,00	35876,94
1203,00	35750,37
1204,00	35993,40
1205,00	35944,97
1206,00	35779,58
1207,00	35819,92
1208,00	35718,37
1209,00	35671,20
1210,00	35769,16
1211,00	35554,71
1212,00	35442,60
1213,00	35339,74
1214,00	35257,62
1215,00	34889,75
1216,00	34357,98
1217,00	34021,28
1218,00	33804,43
1219,00	33603,02
1220,00	33538,69
1221,00	33371,56
1222,00	33491,75
1223,00	33473,15
1224,00	33488,34
1225,00	33474,94
1226,00	33367,27
1227,00	33394,64
1228,00	33330,66
1229,00	33326,84
1230,00	33252,93
1231,00	33222,34
1232,00	33122,55
1233,00	33148,88
1234,00	33047,80
1235,00	33056,10
1236,00	32928,63
1237,00	32772,85
1238,00	32713,76
1239,00	32463,98
1240,00	32196,29
1241,00	31966,93
1242,00	31593,44
1243,00	31349,84
1244,00	31154,23
1245,00	30993,43
1246,00	30903,06
1247,00	30964,11
1248,00	30857,69
1249,00	30781,19
1250,00	30793,49
1251,00	30791,67
1252,00	30686,18
1253,00	30673,52
1254,00	30620,24
1255,00	30632,99
1256,00	30550,31
1257,00	30468,92
1258,00	30313,14
1259,00	30229,93
1260,00	30316,24
1261,00	30101,34
1262,00	30060,68
1263,00	29884,94
1264,00	29729,03
1265,00	29688,76
1266,00	29417,39
1267,00	29110,82
1268,00	28934,83
1269,00	28747,60
1270,00	28534,07
1271,00	28361,85
1272,00	28351,04
1273,00	28286,29
1274,00	28198,61
1275,00	28141,15
1276,00	28095,30
1277,00	27901,02
1278,00	28115,15
1279,00	27776,13
1280,00	27992,05
1281,00	27714,81
1282,00	27732,66
1283,00	27651,55
1284,00	27604,46
1285,00	27385,29
1286,00	27488,60
1287,00	27240,56
1288,00	27222,32
1289,00	27181,03
1290,00	26951,78
1291,00	26841,80
1292,00	26698,24
1293,00	26488,21
1294,00	26239,15
1295,00	26067,73
1296,00	26013,56
1297,00	25780,01
1298,00	25708,03
1299,00	25566,98
1300,00	25558,40
1301,00	25548,66
1302,00	25404,38
1303,00	25418,20
1304,00	25360,46
1305,00	25175,00
1306,00	25101,71
1307,00	25192,15
1308,00	25019,67
1309,00	24935,18
1310,00	24887,59
1311,00	24827,86
1312,00	24766,41
1313,00	24669,12
1314,00	24498,95
1315,00	24527,42
1316,00	24362,25
1317,00	24252,01
1318,00	24057,93
1319,00	23998,72
1320,00	23829,08
1321,00	23702,63
1322,00	23452,50
1323,00	23368,41
1324,00	23294,77
1325,00	23144,64
1326,00	23154,59
1327,00	23007,57
1328,00	22995,19
1329,00	22870,05
1330,00	22846,58
1331,00	22622,34
1332,00	22727,89
1333,00	22659,23
1334,00	22541,68
1335,00	22436,22
1336,00	22457,97
1337,00	22340,56
1338,00	22305,17
1339,00	22288,54
1340,00	22274,37
1341,00	21991,70
1342,00	22011,09
1343,00	21849,86
1344,00	21674,34
1345,00	21694,35
1346,00	21615,48
1347,00	21523,36
1348,00	21304,99
1349,00	21120,18
1350,00	21072,83
1351,00	20897,81
1352,00	20692,52
1353,00	20893,40
1354,00	20694,46
1355,00	20675,19
1356,00	20685,60
1357,00	20448,39
1358,00	20371,62
1359,00	20256,15
1360,00	20327,97
1361,00	20193,19
1362,00	20222,99
1363,00	20136,20
1364,00	20040,23
1365,00	20108,40
1366,00	19764,16
1367,00	19937,26
1368,00	19786,73
1369,00	19693,54
1370,00	19699,96
1371,00	19533,41
1372,00	19559,94
1373,00	19432,53
1374,00	19299,29
1375,00	19135,41
1376,00	19059,45
1377,00	19065,38
1378,00	18886,94
1379,00	18832,14
1380,00	18775,21
1381,00	18618,76
1382,00	18599,15
1383,00	18556,68
1384,00	18572,40
1385,00	18415,22
1386,00	18246,41
1387,00	18353,79
1388,00	18256,15
1389,00	18157,96
1390,00	17989,54
1391,00	17923,47
1392,00	17962,29
1393,00	17955,25
1394,00	17874,71
1395,00	17819,71
1396,00	17707,80
1397,00	17649,18
1398,00	17732,07
1399,00	17524,80
1400,00	17483,11
1401,00	17609,18
1402,00	17361,33
1403,00	17290,10
1404,00	17125,92
1405,00	17182,80
1406,00	17019,60
1407,00	16921,71
1408,00	16891,41
1409,00	16772,30
1410,00	16708,90
1411,00	16647,37
1412,00	16592,28
1413,00	16548,01
1414,00	16490,11
1415,00	16369,01
1416,00	16330,68
1417,00	16340,44
1418,00	16203,98
1419,00	16200,57
1420,00	16077,71
1421,00	16112,47
1422,00	15985,93
1423,00	15974,10
1424,00	15942,33
1425,00	15768,87
1426,00	15824,73
1427,00	15744,63
1428,00	15658,88
1429,00	15673,66
1430,00	15509,82
1431,00	15486,74
1432,00	15388,29
1433,00	15378,51
1434,00	15334,02
1435,00	15251,96
1436,00	15200,26
1437,00	15141,73
1438,00	15027,03
1439,00	14963,16
1440,00	14911,20
1441,00	14821,72
1442,00	14801,30
1443,00	14723,95
1444,00	14668,41
1445,00	14628,45
1446,00	14645,86
1447,00	14522,85
1448,00	14506,20
1449,00	14397,48
1450,00	14401,96
1451,00	14345,31
1452,00	14293,95
1453,00	14219,71
1454,00	14166,57
1455,00	14121,73
1456,00	14107,39
1457,00	13994,92
1458,00	13982,94
1459,00	13860,17
1460,00	13786,20
1461,00	13791,85
1462,00	13725,90
1463,00	13616,02
1464,00	13642,90
1465,00	13508,33
1466,00	13516,83
1467,00	13428,38
1468,00	13405,23
1469,00	13351,60
1470,00	13249,63
1471,00	13234,34
1472,00	13175,54
1473,00	13096,15
1474,00	13079,25
1475,00	13017,83
1476,00	12967,75
1477,00	12938,25
1478,00	12885,94
1479,00	12851,14
1480,00	12811,83
1481,00	12732,22
1482,00	12674,91
1483,00	12665,23
1484,00	12609,03
1485,00	12575,08
1486,00	12522,63
1487,00	12458,75
1488,00	12431,88
1489,00	12402,65
1490,00	12307,81
1491,00	12268,46
1492,00	12182,75
1493,00	12162,42
1494,00	12106,11
1495,00	12118,76
1496,00	11974,75
1497,00	11961,25
1498,00	11865,46
1499,00	11892,06
1500,00	11781,67
1501,00	11754,01
1502,00	11702,33
1503,00	11662,77
1504,00	11597,80
1505,00	11620,31
1506,00	11578,62
1507,00	11449,53
1508,00	11461,67
1509,00	11380,98
1510,00	11348,52
1511,00	11321,76
1512,00	11232,01
1513,00	11232,37
1514,00	11192,92
1515,00	11107,50
1516,00	11082,65
1517,00	11039,12
1518,00	11056,35
1519,00	10948,06
1520,00	10935,56
1521,00	10865,40
1522,00	10835,42
1523,00	10786,60
1524,00	10755,15
1525,00	10711,04
1526,00	10651,32
1527,00	10614,21
1528,00	10573,27
1529,00	10506,78
1530,00	10495,11
1531,00	10422,41
1532,00	10407,16
1533,00	10369,43
1534,00	10303,08
1535,00	10248,00
1536,00	10216,11
1537,00	10211,08
1538,00	10154,35
1539,00	10122,53
1540,00	10098,70
1541,00	10044,54
1542,00	10001,63
1543,00	9934,67
1544,00	9914,06
1545,00	9853,94
1546,00	9829,75
1547,00	9785,61
1548,00	9772,31
1549,00	9699,09
1550,00	9671,33
1551,00	9633,52
1552,00	9564,18
1553,00	9575,48
1554,00	9530,35
1555,00	9460,76
1556,00	9437,86
1557,00	9395,41
1558,00	9351,74
1559,00	9303,58
1560,00	9272,97
1561,00	9234,32
1562,00	9209,45
1563,00	9180,70
1564,00	9085,40
1565,00	9090,23
1566,00	9040,68
1567,00	8998,94
1568,00	8962,32
1569,00	8929,82
1570,00	8902,99
1571,00	8842,73
1572,00	8821,28
1573,00	8792,80
1574,00	8763,01
1575,00	8724,32
1576,00	8658,29
1577,00	8659,01
1578,00	8620,87
1579,00	8542,14
1580,00	8542,11
1581,00	8497,52
1582,00	8459,27
1583,00	8440,80
1584,00	8391,19
1585,00	8387,08
1586,00	8336,49
1587,00	8298,75
1588,00	8243,51
1589,00	8229,75
1590,00	8159,72
1591,00	8133,54
1592,00	8122,16
1593,00	8087,54
1594,00	8047,47
1595,00	7993,14
1596,00	7960,03
1597,00	7927,69
1598,00	7875,39
1599,00	7881,72
1600,00	7828,55
1601,00	7799,71
1602,00	7755,51
1603,00	7730,85
1604,00	7702,20
1605,00	7666,79
1606,00	7652,50
1607,00	7593,39
1608,00	7562,85
1609,00	7537,70
1610,00	7506,31
1611,00	7466,57
1612,00	7442,01
1613,00	7409,37
1614,00	7362,32
1615,00	7349,73
1616,00	7326,42
1617,00	7276,24
1618,00	7246,13
1619,00	7226,95
1620,00	7193,25
1621,00	7152,87
1622,00	7119,62
1623,00	7093,62
1624,00	7059,64
1625,00	7005,34
1626,00	7006,87
1627,00	6966,75
1628,00	6918,97
1629,00	6908,23
1630,00	6883,62
1631,00	6825,34
1632,00	6821,92
1633,00	6780,33
1634,00	6764,04
1635,00	6727,43
1636,00	6708,61
1637,00	6651,52
1638,00	6642,19
1639,00	6620,16
1640,00	6595,48
1641,00	6566,93
1642,00	6528,89
1643,00	6505,21
1644,00	6453,84
1645,00	6441,51
1646,00	6421,24
1647,00	6394,69
1648,00	6355,83
1649,00	6334,86
1650,00	6299,97
1651,00	6268,85
1652,00	6245,79
1653,00	6216,82
1654,00	6209,00
1655,00	6185,63
1656,00	6137,14
1657,00	6106,98
1658,00	6082,36
1659,00	6070,05
1660,00	6042,00
1661,00	6018,30
1662,00	5984,68
1663,00	5959,97
1664,00	5952,62
1665,00	5901,98
1666,00	5883,20
1667,00	5860,11
1668,00	5821,76
1669,00	5813,30
1670,00	5771,83
1671,00	5759,17
1672,00	5738,49
1673,00	5697,60
1674,00	5693,77
1675,00	5663,13
1676,00	5650,77
1677,00	5616,33
1678,00	5606,53
1679,00	5579,71
1680,00	5550,19
1681,00	5539,27
1682,00	5523,74
1683,00	5469,57
1684,00	5447,54
1685,00	5438,10
1686,00	5415,54
1687,00	5387,71
1688,00	5351,32
1689,00	5345,51
1690,00	5326,64
1691,00	5294,22
1692,00	5257,05
1693,00	5254,67
1694,00	5235,46
1695,00	5223,34
1696,00	5197,47
1697,00	5166,01
1698,00	5136,89
1699,00	5129,47
1700,00	5114,26
1701,00	5086,31
1702,00	5071,49
1703,00	5033,34
1704,00	5025,81
1705,00	4989,75
1706,00	4985,19
1707,00	4947,75
1708,00	4946,57
1709,00	4909,56
1710,00	4912,83
1711,00	4883,58
1712,00	4860,53
1713,00	4852,28
1714,00	4815,89
1715,00	4798,71
1716,00	4781,42
1717,00	4754,19
1718,00	4743,07
1719,00	4746,03
1720,00	4702,82
1721,00	4686,43
1722,00	4669,00
1723,00	4662,67
1724,00	4648,40
1725,00	4612,21
1726,00	4589,88
1727,00	4576,18
1728,00	4564,16
1729,00	4547,53
1730,00	4521,41
1731,00	4498,74
1732,00	4489,11
1733,00	4458,08
1734,00	4430,63
1735,00	4427,22
1736,00	4407,16
1737,00	4400,68
1738,00	4380,71
1739,00	4360,65
1740,00	4338,64
1741,00	4331,99
1742,00	4311,37
1743,00	4294,65
1744,00	4275,16
1745,00	4252,11
1746,00	4249,19
1747,00	4221,40
1748,00	4222,22
1749,00	4188,72
1750,00	4147,30
1751,00	4158,17
1752,00	4148,37
1753,00	4129,49
1754,00	4125,23
1755,00	4094,61
1756,00	4078,92
1757,00	4070,59
1758,00	4054,38
1759,00	4042,82
1760,00	4019,53
1761,00	4010,74
1762,00	3987,49
1763,00	3977,63
1764,00	3959,65
1765,00	3949,51
1766,00	3944,62
1767,00	3922,12
1768,00	3903,04
1769,00	3885,99
1770,00	3863,41
1771,00	3855,33
1772,00	3840,66
1773,00	3824,74
1774,00	3821,52
1775,00	3810,45
1776,00	3779,69
1777,00	3773,04
1778,00	3744,37
1779,00	3749,97
1780,00	3732,16
1781,00	3724,97
1782,00	3687,12
1783,00	3686,12
1784,00	3672,90
1785,00	3658,00
1786,00	3641,07
1787,00	3631,80
1788,00	3626,14
1789,00	3601,81
1790,00	3596,20
1791,00	3571,03
1792,00	3561,19
1793,00	3531,12
1794,00	3528,20
1795,00	3521,02
1796,00	3513,35
1797,00	3492,62
1798,00	3473,58
1799,00	3468,03
1800,00	3453,29
1801,00	3450,36
1802,00	3433,96
1803,00	3410,80
1804,00	3398,89
1805,00	3383,46
1806,00	3366,21
1807,00	3361,32
1808,00	3368,40
1809,00	3337,42
1810,00	3342,72
1811,00	3313,41
1812,00	3303,93
1813,00	3287,51
1814,00	3279,77
1815,00	3262,74
1816,00	3264,64
1817,00	3242,98
1818,00	3238,98
1819,00	3215,76
1820,00	3201,74
1821,00	3196,12
1822,00	3190,85
1823,00	3176,88
1824,00	3156,54
1825,00	3132,06
1826,00	3124,74
1827,00	3109,62
1828,00	3100,25
1829,00	3102,09
1830,00	3072,29
1831,00	3074,45
1832,00	3066,62
1833,00	3063,37
1834,00	3052,35
1835,00	3047,36
1836,00	3030,54
1837,00	3023,62
1838,00	3000,12
1839,00	2995,02
1840,00	2988,47
1841,00	2983,24
1842,00	2964,90
1843,00	2941,77
1844,00	2951,40
1845,00	2929,89
1846,00	2929,58
1847,00	2918,10
1848,00	2907,31
1849,00	2902,93
1850,00	2892,14
1851,00	2873,74
1852,00	2862,06
1853,00	2845,28
1854,00	2846,85
1855,00	2834,60
1856,00	2826,61
1857,00	2811,86
1858,00	2798,11
1859,00	2788,14
1860,00	2786,79
1861,00	2766,48
1862,00	2765,80
1863,00	2753,06
1864,00	2749,97
1865,00	2742,02
1866,00	2727,90
1867,00	2721,72
1868,00	2708,68
1869,00	2695,01
1870,00	2696,39
1871,00	2691,10
1872,00	2671,39
1873,00	2660,20
1874,00	2652,16
1875,00	2652,25
1876,00	2642,83
1877,00	2638,23
1878,00	2630,64
1879,00	2609,71
1880,00	2603,52
1881,00	2600,87
1882,00	2591,27
1883,00	2578,67
1884,00	2578,50
1885,00	2564,32
1886,00	2548,86
1887,00	2549,91
1888,00	2541,07
1889,00	2530,07
1890,00	2522,62
1891,00	2515,36
1892,00	2513,18
1893,00	2498,58
1894,00	2495,91
1895,00	2481,77
1896,00	2471,61
1897,00	2475,65
1898,00	2454,95
1899,00	2457,54
1900,00	2447,36
1901,00	2447,05
1902,00	2439,43
1903,00	2426,71
1904,00	2419,52
1905,00	2418,15
1906,00	2410,75
1907,00	2392,33
1908,00	2395,80
1909,00	2384,50
1910,00	2371,36
1911,00	2367,38
1912,00	2362,96
1913,00	2353,27
1914,00	2347,71
1915,00	2341,40
1916,00	2321,32
1917,00	2321,09
1918,00	2322,60
1919,00	2309,87
1920,00	2304,57
1921,00	2292,61
1922,00	2282,44
1923,00	2279,04
1924,00	2280,08
1925,00	2270,51
1926,00	2261,59
1927,00	2252,81
1928,00	2244,48
1929,00	2247,06
1930,00	2241,91
1931,00	2234,78
1932,00	2223,19
1933,00	2226,43
1934,00	2209,40
1935,00	2207,75
1936,00	2204,89
1937,00	2196,25
1938,00	2185,19
1939,00	2185,08
1940,00	2176,19
1941,00	2173,75
1942,00	2161,13
1943,00	2160,24
1944,00	2152,12
1945,00	2144,92
1946,00	2144,08
1947,00	2131,17
1948,00	2127,24
1949,00	2128,17
1950,00	2116,34
1951,00	2110,71
1952,00	2107,28
1953,00	2100,95
1954,00	2099,91
1955,00	2092,75
1956,00	2087,17
1957,00	2082,08
1958,00	2074,01
1959,00	2069,88
1960,00	2064,64
1961,00	2058,42
1962,00	2056,32
1963,00	2051,98
1964,00	2043,24
1965,00	2041,71
1966,00	2030,39
1967,00	2030,41
1968,00	2018,35
1969,00	2018,92
1970,00	2013,58
1971,00	2007,11
1972,00	1999,40
1973,00	2000,22
1974,00	1996,27
1975,00	1992,90
1976,00	1983,77
1977,00	1978,23
1978,00	1966,91
1979,00	1969,83
1980,00	1963,85
1981,00	1957,64
1982,00	1955,95
1983,00	1950,31
1984,00	1949,04
1985,00	1941,41
1986,00	1938,29
1987,00	1935,64
1988,00	1929,94
1989,00	1923,90
1990,00	1916,57
1991,00	1917,57
1992,00	1911,25
1993,00	1907,20
1994,00	1894,67
1995,00	1900,54
1996,00	1891,83
1997,00	1882,41
1998,00	1883,36
1999,00	1878,97
2000,00	1871,87
2001,00	1867,63
2002,00	1868,71
2003,00	1860,70
2004,00	1856,61
2005,00	1853,81
2006,00	1847,79
2007,00	1843,65
2008,00	1841,35
2009,00	1838,20
2010,00	1833,74
2011,00	1828,91
2012,00	1825,06
2013,00	1816,31
2014,00	1815,20
2015,00	1807,42
2016,00	1806,97
2017,00	1800,52
2018,00	1795,20
2019,00	1794,32
2020,00	1789,99
2021,00	1779,46
2022,00	1777,70
2023,00	1776,75
2024,00	1771,95
2025,00	1768,58
2026,00	1761,09
2027,00	1758,92
2028,00	1756,29
2029,00	1750,61
2030,00	1749,10
2031,00	1741,74
2032,00	1741,01
2033,00	1734,27
2034,00	1735,49
2035,00	1727,47
2036,00	1724,25
2037,00	1718,07
2038,00	1714,44
2039,00	1714,07
2040,00	1708,28
2041,00	1705,06
2042,00	1698,35
2043,00	1699,12
2044,00	1692,24
2045,00	1688,73
2046,00	1688,73
2047,00	1688,73
>>>>>End Processed Spectral Data<<<<<
